# E (eV)   ldos(E)   pdos(E)   
  -6.070  0.176E-04  0.176E-04
  -6.055  0.649E-04  0.649E-04
  -6.040  0.218E-03  0.218E-03
  -6.025  0.666E-03  0.666E-03
  -6.010  0.185E-02  0.185E-02
  -5.995  0.469E-02  0.469E-02
  -5.980  0.108E-01  0.108E-01
  -5.965  0.228E-01  0.228E-01
  -5.950  0.437E-01  0.437E-01
  -5.935  0.767E-01  0.767E-01
  -5.920  0.123E+00  0.123E+00
  -5.905  0.182E+00  0.182E+00
  -5.890  0.246E+00  0.246E+00
  -5.875  0.308E+00  0.308E+00
  -5.860  0.358E+00  0.358E+00
  -5.845  0.388E+00  0.388E+00
  -5.830  0.396E+00  0.396E+00
  -5.815  0.384E+00  0.384E+00
  -5.800  0.360E+00  0.360E+00
  -5.785  0.328E+00  0.328E+00
  -5.770  0.297E+00  0.297E+00
  -5.755  0.268E+00  0.268E+00
  -5.740  0.244E+00  0.244E+00
  -5.725  0.225E+00  0.225E+00
  -5.710  0.209E+00  0.209E+00
  -5.695  0.196E+00  0.196E+00
  -5.680  0.186E+00  0.186E+00
  -5.665  0.177E+00  0.177E+00
  -5.650  0.169E+00  0.169E+00
  -5.635  0.162E+00  0.162E+00
  -5.620  0.155E+00  0.155E+00
  -5.605  0.150E+00  0.150E+00
  -5.590  0.145E+00  0.145E+00
  -5.575  0.140E+00  0.140E+00
  -5.560  0.136E+00  0.136E+00
  -5.545  0.131E+00  0.131E+00
  -5.530  0.128E+00  0.128E+00
  -5.515  0.124E+00  0.124E+00
  -5.500  0.121E+00  0.121E+00
  -5.485  0.118E+00  0.118E+00
  -5.470  0.115E+00  0.115E+00
  -5.455  0.113E+00  0.113E+00
  -5.440  0.110E+00  0.110E+00
  -5.425  0.108E+00  0.108E+00
  -5.410  0.106E+00  0.106E+00
  -5.395  0.104E+00  0.104E+00
  -5.380  0.102E+00  0.102E+00
  -5.365  0.996E-01  0.996E-01
  -5.350  0.973E-01  0.973E-01
  -5.335  0.953E-01  0.953E-01
  -5.320  0.939E-01  0.939E-01
  -5.305  0.929E-01  0.929E-01
  -5.290  0.920E-01  0.920E-01
  -5.275  0.905E-01  0.905E-01
  -5.260  0.884E-01  0.884E-01
  -5.245  0.862E-01  0.862E-01
  -5.230  0.845E-01  0.845E-01
  -5.215  0.837E-01  0.837E-01
  -5.200  0.835E-01  0.835E-01
  -5.185  0.833E-01  0.833E-01
  -5.170  0.823E-01  0.823E-01
  -5.155  0.805E-01  0.805E-01
  -5.140  0.784E-01  0.784E-01
  -5.125  0.765E-01  0.765E-01
  -5.110  0.755E-01  0.755E-01
  -5.095  0.754E-01  0.754E-01
  -5.080  0.757E-01  0.757E-01
  -5.065  0.757E-01  0.757E-01
  -5.050  0.750E-01  0.750E-01
  -5.035  0.736E-01  0.736E-01
  -5.020  0.718E-01  0.718E-01
  -5.005  0.700E-01  0.700E-01
  -4.990  0.686E-01  0.686E-01
  -4.975  0.679E-01  0.679E-01
  -4.960  0.681E-01  0.681E-01
  -4.945  0.690E-01  0.690E-01
  -4.930  0.698E-01  0.698E-01
  -4.915  0.698E-01  0.698E-01
  -4.900  0.684E-01  0.684E-01
  -4.885  0.658E-01  0.658E-01
  -4.870  0.629E-01  0.629E-01
  -4.855  0.611E-01  0.611E-01
  -4.840  0.611E-01  0.611E-01
  -4.825  0.627E-01  0.627E-01
  -4.810  0.648E-01  0.648E-01
  -4.795  0.663E-01  0.663E-01
  -4.780  0.660E-01  0.660E-01
  -4.765  0.640E-01  0.640E-01
  -4.750  0.608E-01  0.608E-01
  -4.735  0.579E-01  0.579E-01
  -4.720  0.562E-01  0.562E-01
  -4.705  0.563E-01  0.563E-01
  -4.690  0.580E-01  0.580E-01
  -4.675  0.603E-01  0.603E-01
  -4.660  0.619E-01  0.619E-01
  -4.645  0.621E-01  0.621E-01
  -4.630  0.607E-01  0.607E-01
  -4.615  0.585E-01  0.585E-01
  -4.600  0.562E-01  0.562E-01
  -4.585  0.547E-01  0.547E-01
  -4.570  0.540E-01  0.540E-01
  -4.555  0.540E-01  0.540E-01
  -4.540  0.542E-01  0.542E-01
  -4.525  0.548E-01  0.548E-01
  -4.510  0.558E-01  0.558E-01
  -4.495  0.572E-01  0.572E-01
  -4.480  0.583E-01  0.583E-01
  -4.465  0.586E-01  0.586E-01
  -4.450  0.573E-01  0.573E-01
  -4.435  0.547E-01  0.547E-01
  -4.420  0.514E-01  0.514E-01
  -4.405  0.487E-01  0.487E-01
  -4.390  0.478E-01  0.478E-01
  -4.375  0.489E-01  0.489E-01
  -4.360  0.518E-01  0.518E-01
  -4.345  0.552E-01  0.552E-01
  -4.330  0.580E-01  0.580E-01
  -4.315  0.590E-01  0.590E-01
  -4.300  0.578E-01  0.578E-01
  -4.285  0.546E-01  0.546E-01
  -4.270  0.505E-01  0.505E-01
  -4.255  0.468E-01  0.468E-01
  -4.240  0.448E-01  0.448E-01
  -4.225  0.454E-01  0.454E-01
  -4.210  0.481E-01  0.481E-01
  -4.195  0.519E-01  0.519E-01
  -4.180  0.553E-01  0.553E-01
  -4.165  0.570E-01  0.570E-01
  -4.150  0.566E-01  0.566E-01
  -4.135  0.545E-01  0.545E-01
  -4.120  0.519E-01  0.519E-01
  -4.105  0.498E-01  0.498E-01
  -4.090  0.485E-01  0.485E-01
  -4.075  0.480E-01  0.480E-01
  -4.060  0.479E-01  0.479E-01
  -4.045  0.481E-01  0.481E-01
  -4.030  0.485E-01  0.485E-01
  -4.015  0.495E-01  0.495E-01
  -4.000  0.510E-01  0.510E-01
  -3.985  0.529E-01  0.529E-01
  -3.970  0.548E-01  0.548E-01
  -3.955  0.561E-01  0.561E-01
  -3.940  0.564E-01  0.564E-01
  -3.925  0.554E-01  0.554E-01
  -3.910  0.532E-01  0.532E-01
  -3.895  0.502E-01  0.502E-01
  -3.880  0.471E-01  0.471E-01
  -3.865  0.451E-01  0.451E-01
  -3.850  0.453E-01  0.453E-01
  -3.835  0.479E-01  0.479E-01
  -3.820  0.524E-01  0.524E-01
  -3.805  0.576E-01  0.576E-01
  -3.790  0.619E-01  0.619E-01
  -3.775  0.640E-01  0.640E-01
  -3.760  0.634E-01  0.634E-01
  -3.745  0.607E-01  0.607E-01
  -3.730  0.571E-01  0.571E-01
  -3.715  0.542E-01  0.542E-01
  -3.700  0.531E-01  0.531E-01
  -3.685  0.549E-01  0.549E-01
  -3.670  0.597E-01  0.597E-01
  -3.655  0.679E-01  0.679E-01
  -3.640  0.802E-01  0.802E-01
  -3.625  0.980E-01  0.980E-01
  -3.610  0.123E+00  0.123E+00
  -3.595  0.158E+00  0.158E+00
  -3.580  0.202E+00  0.202E+00
  -3.565  0.253E+00  0.253E+00
  -3.550  0.304E+00  0.304E+00
  -3.535  0.348E+00  0.348E+00
  -3.520  0.378E+00  0.378E+00
  -3.505  0.389E+00  0.389E+00
  -3.490  0.381E+00  0.381E+00
  -3.475  0.360E+00  0.360E+00
  -3.460  0.331E+00  0.331E+00
  -3.445  0.300E+00  0.300E+00
  -3.430  0.274E+00  0.274E+00
  -3.415  0.253E+00  0.253E+00
  -3.400  0.238E+00  0.238E+00
  -3.385  0.226E+00  0.226E+00
  -3.370  0.217E+00  0.217E+00
  -3.355  0.207E+00  0.207E+00
  -3.340  0.196E+00  0.196E+00
  -3.325  0.184E+00  0.184E+00
  -3.310  0.173E+00  0.173E+00
  -3.295  0.164E+00  0.164E+00
  -3.280  0.156E+00  0.156E+00
  -3.265  0.152E+00  0.152E+00
  -3.250  0.150E+00  0.150E+00
  -3.235  0.149E+00  0.149E+00
  -3.220  0.149E+00  0.149E+00
  -3.205  0.149E+00  0.149E+00
  -3.190  0.147E+00  0.147E+00
  -3.175  0.145E+00  0.145E+00
  -3.160  0.142E+00  0.142E+00
  -3.145  0.138E+00  0.138E+00
  -3.130  0.135E+00  0.135E+00
  -3.115  0.131E+00  0.131E+00
  -3.100  0.129E+00  0.129E+00
  -3.085  0.125E+00  0.125E+00
  -3.070  0.122E+00  0.122E+00
  -3.055  0.118E+00  0.118E+00
  -3.040  0.115E+00  0.115E+00
  -3.025  0.112E+00  0.112E+00
  -3.010  0.112E+00  0.112E+00
  -2.995  0.113E+00  0.113E+00
  -2.980  0.115E+00  0.115E+00
  -2.965  0.118E+00  0.118E+00
  -2.950  0.120E+00  0.120E+00
  -2.935  0.120E+00  0.120E+00
  -2.920  0.118E+00  0.118E+00
  -2.905  0.115E+00  0.115E+00
  -2.890  0.110E+00  0.110E+00
  -2.875  0.105E+00  0.105E+00
  -2.860  0.101E+00  0.101E+00
  -2.845  0.980E-01  0.980E-01
  -2.830  0.971E-01  0.971E-01
  -2.815  0.977E-01  0.977E-01
  -2.800  0.992E-01  0.992E-01
  -2.785  0.101E+00  0.101E+00
  -2.770  0.102E+00  0.102E+00
  -2.755  0.102E+00  0.102E+00
  -2.740  0.102E+00  0.102E+00
  -2.725  0.103E+00  0.103E+00
  -2.710  0.103E+00  0.103E+00
  -2.695  0.104E+00  0.104E+00
  -2.680  0.104E+00  0.104E+00
  -2.665  0.102E+00  0.102E+00
  -2.650  0.998E-01  0.998E-01
  -2.635  0.961E-01  0.961E-01
  -2.620  0.922E-01  0.922E-01
  -2.605  0.888E-01  0.888E-01
  -2.590  0.868E-01  0.868E-01
  -2.575  0.867E-01  0.867E-01
  -2.560  0.885E-01  0.885E-01
  -2.545  0.916E-01  0.916E-01
  -2.530  0.953E-01  0.953E-01
  -2.515  0.988E-01  0.988E-01
  -2.500  0.102E+00  0.102E+00
  -2.485  0.104E+00  0.104E+00
  -2.470  0.106E+00  0.106E+00
  -2.455  0.108E+00  0.108E+00
  -2.440  0.114E+00  0.114E+00
  -2.425  0.124E+00  0.124E+00
  -2.410  0.141E+00  0.141E+00
  -2.395  0.165E+00  0.165E+00
  -2.380  0.194E+00  0.194E+00
  -2.365  0.224E+00  0.224E+00
  -2.350  0.250E+00  0.250E+00
  -2.335  0.269E+00  0.269E+00
  -2.320  0.278E+00  0.278E+00
  -2.305  0.278E+00  0.278E+00
  -2.290  0.274E+00  0.274E+00
  -2.275  0.268E+00  0.268E+00
  -2.260  0.264E+00  0.264E+00
  -2.245  0.263E+00  0.263E+00
  -2.230  0.267E+00  0.267E+00
  -2.215  0.275E+00  0.275E+00
  -2.200  0.287E+00  0.287E+00
  -2.185  0.303E+00  0.303E+00
  -2.170  0.323E+00  0.323E+00
  -2.155  0.342E+00  0.342E+00
  -2.140  0.359E+00  0.359E+00
  -2.125  0.368E+00  0.368E+00
  -2.110  0.368E+00  0.368E+00
  -2.095  0.358E+00  0.358E+00
  -2.080  0.341E+00  0.341E+00
  -2.065  0.320E+00  0.320E+00
  -2.050  0.299E+00  0.299E+00
  -2.035  0.280E+00  0.280E+00
  -2.020  0.264E+00  0.264E+00
  -2.005  0.252E+00  0.252E+00
  -1.990  0.241E+00  0.241E+00
  -1.975  0.234E+00  0.234E+00
  -1.960  0.228E+00  0.228E+00
  -1.945  0.224E+00  0.224E+00
  -1.930  0.222E+00  0.222E+00
  -1.915  0.222E+00  0.222E+00
  -1.900  0.224E+00  0.224E+00
  -1.885  0.227E+00  0.227E+00
  -1.870  0.233E+00  0.233E+00
  -1.855  0.243E+00  0.243E+00
  -1.840  0.262E+00  0.262E+00
  -1.825  0.295E+00  0.295E+00
  -1.810  0.347E+00  0.347E+00
  -1.795  0.424E+00  0.424E+00
  -1.780  0.526E+00  0.526E+00
  -1.765  0.646E+00  0.646E+00
  -1.750  0.771E+00  0.771E+00
  -1.735  0.883E+00  0.883E+00
  -1.720  0.964E+00  0.964E+00
  -1.705  0.100E+01  0.100E+01
  -1.690  0.101E+01  0.101E+01
  -1.675  0.980E+00  0.980E+00
  -1.660  0.940E+00  0.940E+00
  -1.645  0.899E+00  0.899E+00
  -1.630  0.866E+00  0.866E+00
  -1.615  0.839E+00  0.839E+00
  -1.600  0.811E+00  0.811E+00
  -1.585  0.771E+00  0.771E+00
  -1.570  0.713E+00  0.713E+00
  -1.555  0.634E+00  0.634E+00
  -1.540  0.541E+00  0.541E+00
  -1.525  0.445E+00  0.445E+00
  -1.510  0.358E+00  0.358E+00
  -1.495  0.287E+00  0.287E+00
  -1.480  0.236E+00  0.236E+00
  -1.465  0.203E+00  0.203E+00
  -1.450  0.184E+00  0.184E+00
  -1.435  0.174E+00  0.174E+00
  -1.420  0.170E+00  0.170E+00
  -1.405  0.167E+00  0.167E+00
  -1.390  0.166E+00  0.166E+00
  -1.375  0.165E+00  0.165E+00
  -1.360  0.165E+00  0.165E+00
  -1.345  0.166E+00  0.166E+00
  -1.330  0.169E+00  0.169E+00
  -1.315  0.175E+00  0.175E+00
  -1.300  0.184E+00  0.184E+00
  -1.285  0.196E+00  0.196E+00
  -1.270  0.212E+00  0.212E+00
  -1.255  0.232E+00  0.232E+00
  -1.240  0.256E+00  0.256E+00
  -1.225  0.283E+00  0.283E+00
  -1.210  0.313E+00  0.313E+00
  -1.195  0.342E+00  0.342E+00
  -1.180  0.367E+00  0.367E+00
  -1.165  0.382E+00  0.382E+00
  -1.150  0.383E+00  0.383E+00
  -1.135  0.369E+00  0.369E+00
  -1.120  0.342E+00  0.342E+00
  -1.105  0.307E+00  0.307E+00
  -1.090  0.270E+00  0.270E+00
  -1.075  0.236E+00  0.236E+00
  -1.060  0.211E+00  0.211E+00
  -1.045  0.194E+00  0.194E+00
  -1.030  0.185E+00  0.185E+00
  -1.015  0.185E+00  0.185E+00
  -1.000  0.192E+00  0.192E+00
  -0.985  0.205E+00  0.205E+00
  -0.970  0.225E+00  0.225E+00
  -0.955  0.252E+00  0.252E+00
  -0.940  0.282E+00  0.282E+00
  -0.925  0.314E+00  0.314E+00
  -0.910  0.343E+00  0.343E+00
  -0.895  0.363E+00  0.363E+00
  -0.880  0.371E+00  0.371E+00
  -0.865  0.368E+00  0.368E+00
  -0.850  0.355E+00  0.355E+00
  -0.835  0.338E+00  0.338E+00
  -0.820  0.322E+00  0.322E+00
  -0.805  0.312E+00  0.312E+00
  -0.790  0.309E+00  0.309E+00
  -0.775  0.312E+00  0.312E+00
  -0.760  0.317E+00  0.317E+00
  -0.745  0.317E+00  0.317E+00
  -0.730  0.308E+00  0.308E+00
  -0.715  0.286E+00  0.286E+00
  -0.700  0.253E+00  0.253E+00
  -0.685  0.211E+00  0.211E+00
  -0.670  0.167E+00  0.167E+00
  -0.655  0.127E+00  0.127E+00
  -0.640  0.932E-01  0.932E-01
  -0.625  0.676E-01  0.676E-01
  -0.610  0.493E-01  0.493E-01
  -0.595  0.366E-01  0.366E-01
  -0.580  0.280E-01  0.280E-01
  -0.565  0.225E-01  0.225E-01
  -0.550  0.195E-01  0.195E-01
  -0.535  0.186E-01  0.186E-01
  -0.520  0.192E-01  0.192E-01
  -0.505  0.202E-01  0.202E-01
  -0.490  0.211E-01  0.211E-01
  -0.475  0.213E-01  0.213E-01
  -0.460  0.210E-01  0.210E-01
  -0.445  0.210E-01  0.210E-01
  -0.430  0.220E-01  0.220E-01
  -0.415  0.243E-01  0.243E-01
  -0.400  0.276E-01  0.276E-01
  -0.385  0.308E-01  0.308E-01
  -0.370  0.328E-01  0.328E-01
  -0.355  0.327E-01  0.327E-01
  -0.340  0.303E-01  0.303E-01
  -0.325  0.262E-01  0.262E-01
  -0.310  0.217E-01  0.217E-01
  -0.295  0.181E-01  0.181E-01
  -0.280  0.161E-01  0.161E-01
  -0.265  0.158E-01  0.158E-01
  -0.250  0.168E-01  0.168E-01
  -0.235  0.183E-01  0.183E-01
  -0.220  0.193E-01  0.193E-01
  -0.205  0.195E-01  0.195E-01
  -0.190  0.189E-01  0.189E-01
  -0.175  0.182E-01  0.182E-01
  -0.160  0.182E-01  0.182E-01
  -0.145  0.194E-01  0.194E-01
  -0.130  0.220E-01  0.220E-01
  -0.115  0.254E-01  0.254E-01
  -0.100  0.286E-01  0.286E-01
  -0.085  0.305E-01  0.305E-01
  -0.070  0.305E-01  0.305E-01
  -0.055  0.284E-01  0.284E-01
  -0.040  0.249E-01  0.249E-01
  -0.025  0.209E-01  0.209E-01
  -0.010  0.173E-01  0.173E-01
   0.005  0.149E-01  0.149E-01
   0.020  0.139E-01  0.139E-01
   0.035  0.140E-01  0.140E-01
   0.050  0.148E-01  0.148E-01
   0.065  0.158E-01  0.158E-01
   0.080  0.167E-01  0.167E-01
   0.095  0.172E-01  0.172E-01
   0.110  0.178E-01  0.178E-01
   0.125  0.185E-01  0.185E-01
   0.140  0.199E-01  0.199E-01
   0.155  0.218E-01  0.218E-01
   0.170  0.240E-01  0.240E-01
   0.185  0.260E-01  0.260E-01
   0.200  0.272E-01  0.272E-01
   0.215  0.269E-01  0.269E-01
   0.230  0.253E-01  0.253E-01
   0.245  0.228E-01  0.228E-01
   0.260  0.199E-01  0.199E-01
   0.275  0.173E-01  0.173E-01
   0.290  0.155E-01  0.155E-01
   0.305  0.145E-01  0.145E-01
   0.320  0.142E-01  0.142E-01
   0.335  0.143E-01  0.143E-01
   0.350  0.146E-01  0.146E-01
   0.365  0.149E-01  0.149E-01
   0.380  0.151E-01  0.151E-01
   0.395  0.152E-01  0.152E-01
   0.410  0.156E-01  0.156E-01
   0.425  0.167E-01  0.167E-01
   0.440  0.186E-01  0.186E-01
   0.455  0.212E-01  0.212E-01
   0.470  0.241E-01  0.241E-01
   0.485  0.263E-01  0.263E-01
   0.500  0.274E-01  0.274E-01
   0.515  0.269E-01  0.269E-01
   0.530  0.250E-01  0.250E-01
   0.545  0.219E-01  0.219E-01
   0.560  0.183E-01  0.183E-01
   0.575  0.148E-01  0.148E-01
   0.590  0.117E-01  0.117E-01
   0.605  0.977E-02  0.977E-02
   0.620  0.908E-02  0.908E-02
   0.635  0.973E-02  0.973E-02
   0.650  0.115E-01  0.115E-01
   0.665  0.139E-01  0.139E-01
   0.680  0.166E-01  0.166E-01
   0.695  0.190E-01  0.190E-01
   0.710  0.208E-01  0.208E-01
   0.725  0.220E-01  0.220E-01
   0.740  0.224E-01  0.224E-01
   0.755  0.222E-01  0.222E-01
   0.770  0.214E-01  0.214E-01
   0.785  0.202E-01  0.202E-01
   0.800  0.188E-01  0.188E-01
   0.815  0.178E-01  0.178E-01
   0.830  0.174E-01  0.174E-01
   0.845  0.176E-01  0.176E-01
   0.860  0.183E-01  0.183E-01
   0.875  0.189E-01  0.189E-01
   0.890  0.187E-01  0.187E-01
   0.905  0.175E-01  0.175E-01
   0.920  0.153E-01  0.153E-01
   0.935  0.124E-01  0.124E-01
   0.950  0.961E-02  0.961E-02
   0.965  0.762E-02  0.762E-02
   0.980  0.706E-02  0.706E-02
   0.995  0.830E-02  0.830E-02
   1.010  0.114E-01  0.114E-01
   1.025  0.161E-01  0.161E-01
   1.040  0.216E-01  0.216E-01
   1.055  0.266E-01  0.266E-01
   1.070  0.299E-01  0.299E-01
   1.085  0.305E-01  0.305E-01
   1.100  0.283E-01  0.283E-01
   1.115  0.239E-01  0.239E-01
   1.130  0.184E-01  0.184E-01
   1.145  0.131E-01  0.131E-01
   1.160  0.881E-02  0.881E-02
   1.175  0.621E-02  0.621E-02
   1.190  0.541E-02  0.541E-02
   1.205  0.630E-02  0.630E-02
   1.220  0.855E-02  0.855E-02
   1.235  0.117E-01  0.117E-01
   1.250  0.150E-01  0.150E-01
   1.265  0.178E-01  0.178E-01
   1.280  0.196E-01  0.196E-01
   1.295  0.202E-01  0.202E-01
   1.310  0.199E-01  0.199E-01
   1.325  0.191E-01  0.191E-01
   1.340  0.182E-01  0.182E-01
   1.355  0.175E-01  0.175E-01
   1.370  0.167E-01  0.167E-01
   1.385  0.161E-01  0.161E-01
   1.400  0.156E-01  0.156E-01
   1.415  0.155E-01  0.155E-01
   1.430  0.159E-01  0.159E-01
   1.445  0.168E-01  0.168E-01
   1.460  0.178E-01  0.178E-01
   1.475  0.183E-01  0.183E-01
   1.490  0.178E-01  0.178E-01
   1.505  0.160E-01  0.160E-01
   1.520  0.134E-01  0.134E-01
   1.535  0.104E-01  0.104E-01
   1.550  0.788E-02  0.788E-02
   1.565  0.632E-02  0.632E-02
   1.580  0.624E-02  0.624E-02
   1.595  0.788E-02  0.788E-02
   1.610  0.112E-01  0.112E-01
   1.625  0.159E-01  0.159E-01
   1.640  0.212E-01  0.212E-01
   1.655  0.261E-01  0.261E-01
   1.670  0.297E-01  0.297E-01
   1.685  0.311E-01  0.311E-01
   1.700  0.302E-01  0.302E-01
   1.715  0.275E-01  0.275E-01
   1.730  0.236E-01  0.236E-01
   1.745  0.195E-01  0.195E-01
   1.760  0.159E-01  0.159E-01
   1.775  0.134E-01  0.134E-01
   1.790  0.122E-01  0.122E-01
   1.805  0.123E-01  0.123E-01
   1.820  0.137E-01  0.137E-01
   1.835  0.161E-01  0.161E-01
   1.850  0.193E-01  0.193E-01
   1.865  0.230E-01  0.230E-01
   1.880  0.268E-01  0.268E-01
   1.895  0.303E-01  0.303E-01
   1.910  0.330E-01  0.330E-01
   1.925  0.346E-01  0.346E-01
   1.940  0.349E-01  0.349E-01
   1.955  0.338E-01  0.338E-01
   1.970  0.313E-01  0.313E-01
   1.985  0.280E-01  0.280E-01
   2.000  0.244E-01  0.244E-01
   2.015  0.213E-01  0.213E-01
   2.030  0.194E-01  0.194E-01
   2.045  0.187E-01  0.187E-01
   2.060  0.191E-01  0.191E-01
   2.075  0.202E-01  0.202E-01
   2.090  0.215E-01  0.215E-01
   2.105  0.225E-01  0.225E-01
   2.120  0.230E-01  0.230E-01
   2.135  0.227E-01  0.227E-01
   2.150  0.220E-01  0.220E-01
   2.165  0.209E-01  0.209E-01
   2.180  0.198E-01  0.198E-01
   2.195  0.193E-01  0.193E-01
   2.210  0.197E-01  0.197E-01
   2.225  0.212E-01  0.212E-01
   2.240  0.236E-01  0.236E-01
   2.255  0.263E-01  0.263E-01
   2.270  0.286E-01  0.286E-01
   2.285  0.299E-01  0.299E-01
   2.300  0.300E-01  0.300E-01
   2.315  0.291E-01  0.291E-01
   2.330  0.276E-01  0.276E-01
   2.345  0.260E-01  0.260E-01
   2.360  0.247E-01  0.247E-01
   2.375  0.237E-01  0.237E-01
   2.390  0.228E-01  0.228E-01
   2.405  0.216E-01  0.216E-01
   2.420  0.200E-01  0.200E-01
   2.435  0.183E-01  0.183E-01
   2.450  0.168E-01  0.168E-01
   2.465  0.162E-01  0.162E-01
   2.480  0.171E-01  0.171E-01
   2.495  0.196E-01  0.196E-01
   2.510  0.235E-01  0.235E-01
   2.525  0.281E-01  0.281E-01
   2.540  0.325E-01  0.325E-01
   2.555  0.356E-01  0.356E-01
   2.570  0.367E-01  0.367E-01
   2.585  0.358E-01  0.358E-01
   2.600  0.332E-01  0.332E-01
   2.615  0.295E-01  0.295E-01
   2.630  0.256E-01  0.256E-01
   2.645  0.221E-01  0.221E-01
   2.660  0.195E-01  0.195E-01
   2.675  0.180E-01  0.180E-01
   2.690  0.174E-01  0.174E-01
   2.705  0.175E-01  0.175E-01
   2.720  0.182E-01  0.182E-01
   2.735  0.191E-01  0.191E-01
   2.750  0.202E-01  0.202E-01
   2.765  0.217E-01  0.217E-01
   2.780  0.236E-01  0.236E-01
   2.795  0.261E-01  0.261E-01
   2.810  0.290E-01  0.290E-01
   2.825  0.318E-01  0.318E-01
   2.840  0.338E-01  0.338E-01
   2.855  0.344E-01  0.344E-01
   2.870  0.331E-01  0.331E-01
   2.885  0.301E-01  0.301E-01
   2.900  0.261E-01  0.261E-01
   2.915  0.221E-01  0.221E-01
   2.930  0.190E-01  0.190E-01
   2.945  0.175E-01  0.175E-01
   2.960  0.176E-01  0.176E-01
   2.975  0.189E-01  0.189E-01
   2.990  0.209E-01  0.209E-01
   3.005  0.227E-01  0.227E-01
   3.020  0.240E-01  0.240E-01
   3.035  0.246E-01  0.246E-01
   3.050  0.245E-01  0.245E-01
   3.065  0.241E-01  0.241E-01
   3.080  0.237E-01  0.237E-01
   3.095  0.236E-01  0.236E-01
   3.110  0.239E-01  0.239E-01
   3.125  0.246E-01  0.246E-01
   3.140  0.255E-01  0.255E-01
   3.155  0.264E-01  0.264E-01
   3.170  0.268E-01  0.268E-01
   3.185  0.266E-01  0.266E-01
   3.200  0.258E-01  0.258E-01
   3.215  0.245E-01  0.245E-01
   3.230  0.229E-01  0.229E-01
   3.245  0.213E-01  0.213E-01
   3.260  0.200E-01  0.200E-01
   3.275  0.189E-01  0.189E-01
   3.290  0.182E-01  0.182E-01
   3.305  0.178E-01  0.178E-01
   3.320  0.176E-01  0.176E-01
   3.335  0.177E-01  0.177E-01
   3.350  0.178E-01  0.178E-01
   3.365  0.181E-01  0.181E-01
   3.380  0.185E-01  0.185E-01
   3.395  0.192E-01  0.192E-01
   3.410  0.203E-01  0.203E-01
   3.425  0.219E-01  0.219E-01
   3.440  0.236E-01  0.236E-01
   3.455  0.252E-01  0.252E-01
   3.470  0.263E-01  0.263E-01
   3.485  0.266E-01  0.266E-01
   3.500  0.260E-01  0.260E-01
   3.515  0.247E-01  0.247E-01
   3.530  0.227E-01  0.227E-01
   3.545  0.202E-01  0.202E-01
   3.560  0.175E-01  0.175E-01
   3.575  0.148E-01  0.148E-01
   3.590  0.125E-01  0.125E-01
   3.605  0.110E-01  0.110E-01
   3.620  0.105E-01  0.105E-01
   3.635  0.112E-01  0.112E-01
   3.650  0.129E-01  0.129E-01
   3.665  0.156E-01  0.156E-01
   3.680  0.188E-01  0.188E-01
   3.695  0.221E-01  0.221E-01
   3.710  0.249E-01  0.249E-01
   3.725  0.269E-01  0.269E-01
   3.740  0.275E-01  0.275E-01
   3.755  0.267E-01  0.267E-01
   3.770  0.246E-01  0.246E-01
   3.785  0.216E-01  0.216E-01
   3.800  0.183E-01  0.183E-01
   3.815  0.152E-01  0.152E-01
   3.830  0.127E-01  0.127E-01
   3.845  0.111E-01  0.111E-01
   3.860  0.104E-01  0.104E-01
   3.875  0.103E-01  0.103E-01
   3.890  0.107E-01  0.107E-01
   3.905  0.116E-01  0.116E-01
   3.920  0.129E-01  0.129E-01
   3.935  0.147E-01  0.147E-01
   3.950  0.169E-01  0.169E-01
   3.965  0.192E-01  0.192E-01
   3.980  0.215E-01  0.215E-01
   3.995  0.233E-01  0.233E-01
   4.010  0.244E-01  0.244E-01
   4.025  0.245E-01  0.245E-01
   4.040  0.233E-01  0.233E-01
   4.055  0.210E-01  0.210E-01
   4.070  0.177E-01  0.177E-01
   4.085  0.142E-01  0.142E-01
   4.100  0.110E-01  0.110E-01
   4.115  0.886E-02  0.886E-02
   4.130  0.803E-02  0.803E-02
   4.145  0.857E-02  0.857E-02
   4.160  0.103E-01  0.103E-01
   4.175  0.128E-01  0.128E-01
   4.190  0.155E-01  0.155E-01
   4.205  0.177E-01  0.177E-01
   4.220  0.191E-01  0.191E-01
   4.235  0.194E-01  0.194E-01
   4.250  0.188E-01  0.188E-01
   4.265  0.177E-01  0.177E-01
   4.280  0.168E-01  0.168E-01
   4.295  0.161E-01  0.161E-01
   4.310  0.159E-01  0.159E-01
   4.325  0.158E-01  0.158E-01
   4.340  0.154E-01  0.154E-01
   4.355  0.145E-01  0.145E-01
   4.370  0.132E-01  0.132E-01
   4.385  0.118E-01  0.118E-01
   4.400  0.108E-01  0.108E-01
   4.415  0.107E-01  0.107E-01
   4.430  0.116E-01  0.116E-01
   4.445  0.131E-01  0.131E-01
   4.460  0.149E-01  0.149E-01
   4.475  0.161E-01  0.161E-01
   4.490  0.165E-01  0.165E-01
   4.505  0.158E-01  0.158E-01
   4.520  0.144E-01  0.144E-01
   4.535  0.127E-01  0.127E-01
   4.550  0.113E-01  0.113E-01
   4.565  0.106E-01  0.106E-01
   4.580  0.106E-01  0.106E-01
   4.595  0.112E-01  0.112E-01
   4.610  0.119E-01  0.119E-01
   4.625  0.125E-01  0.125E-01
   4.640  0.131E-01  0.131E-01
   4.655  0.135E-01  0.135E-01
   4.670  0.140E-01  0.140E-01
   4.685  0.144E-01  0.144E-01
   4.700  0.146E-01  0.146E-01
   4.715  0.142E-01  0.142E-01
   4.730  0.131E-01  0.131E-01
   4.745  0.114E-01  0.114E-01
   4.760  0.940E-02  0.940E-02
   4.775  0.757E-02  0.757E-02
   4.790  0.628E-02  0.628E-02
   4.805  0.578E-02  0.578E-02
   4.820  0.612E-02  0.612E-02
   4.835  0.714E-02  0.714E-02
   4.850  0.857E-02  0.857E-02
   4.865  0.101E-01  0.101E-01
   4.880  0.114E-01  0.114E-01
   4.895  0.123E-01  0.123E-01
   4.910  0.127E-01  0.127E-01
   4.925  0.125E-01  0.125E-01
   4.940  0.118E-01  0.118E-01
   4.955  0.107E-01  0.107E-01
   4.970  0.921E-02  0.921E-02
   4.985  0.754E-02  0.754E-02
   5.000  0.589E-02  0.589E-02
   5.015  0.448E-02  0.448E-02
   5.030  0.346E-02  0.346E-02
   5.045  0.296E-02  0.296E-02
   5.060  0.302E-02  0.302E-02
   5.075  0.369E-02  0.369E-02
   5.090  0.493E-02  0.493E-02
   5.105  0.662E-02  0.662E-02
   5.120  0.850E-02  0.850E-02
   5.135  0.102E-01  0.102E-01
   5.150  0.114E-01  0.114E-01
   5.165  0.119E-01  0.119E-01
   5.180  0.114E-01  0.114E-01
   5.195  0.102E-01  0.102E-01
   5.210  0.849E-02  0.849E-02
   5.225  0.660E-02  0.660E-02
   5.240  0.483E-02  0.483E-02
   5.255  0.343E-02  0.343E-02
   5.270  0.254E-02  0.254E-02
   5.285  0.225E-02  0.225E-02
   5.300  0.257E-02  0.257E-02
   5.315  0.347E-02  0.347E-02
   5.330  0.482E-02  0.482E-02
   5.345  0.641E-02  0.641E-02
   5.360  0.795E-02  0.795E-02
   5.375  0.913E-02  0.913E-02
   5.390  0.970E-02  0.970E-02
   5.405  0.954E-02  0.954E-02
   5.420  0.870E-02  0.870E-02
   5.435  0.739E-02  0.739E-02
   5.450  0.591E-02  0.591E-02
   5.465  0.453E-02  0.453E-02
   5.480  0.350E-02  0.350E-02
   5.495  0.293E-02  0.293E-02
   5.510  0.282E-02  0.282E-02
   5.525  0.312E-02  0.312E-02
   5.540  0.372E-02  0.372E-02
   5.555  0.449E-02  0.449E-02
   5.570  0.532E-02  0.532E-02
   5.585  0.607E-02  0.607E-02
   5.600  0.661E-02  0.661E-02
   5.615  0.681E-02  0.681E-02
   5.630  0.661E-02  0.661E-02
   5.645  0.605E-02  0.605E-02
   5.660  0.525E-02  0.525E-02
   5.675  0.440E-02  0.440E-02
   5.690  0.368E-02  0.368E-02
   5.705  0.320E-02  0.320E-02
   5.720  0.300E-02  0.300E-02
   5.735  0.306E-02  0.306E-02
   5.750  0.330E-02  0.330E-02
   5.765  0.366E-02  0.366E-02
   5.780  0.405E-02  0.405E-02
   5.795  0.436E-02  0.436E-02
   5.810  0.452E-02  0.452E-02
   5.825  0.445E-02  0.445E-02
   5.840  0.417E-02  0.417E-02
   5.855  0.373E-02  0.373E-02
   5.870  0.326E-02  0.326E-02
   5.885  0.285E-02  0.285E-02
   5.900  0.258E-02  0.258E-02
   5.915  0.246E-02  0.246E-02
   5.930  0.247E-02  0.247E-02
   5.945  0.254E-02  0.254E-02
   5.960  0.259E-02  0.259E-02
   5.975  0.256E-02  0.256E-02
   5.990  0.242E-02  0.242E-02
   6.005  0.218E-02  0.218E-02
   6.020  0.188E-02  0.188E-02
   6.035  0.158E-02  0.158E-02
   6.050  0.131E-02  0.131E-02
   6.065  0.107E-02  0.107E-02
   6.080  0.851E-03  0.851E-03
   6.095  0.657E-03  0.657E-03
   6.110  0.481E-03  0.481E-03
   6.125  0.330E-03  0.330E-03
   6.140  0.209E-03  0.209E-03
   6.155  0.122E-03  0.122E-03
   6.170  0.650E-04  0.650E-04
   6.185  0.316E-04  0.316E-04
   6.200  0.140E-04  0.140E-04
   6.215  0.563E-05  0.563E-05
   6.230  0.206E-05  0.206E-05
   6.245  0.685E-06  0.685E-06
   6.260  0.207E-06  0.207E-06
   6.275  0.570E-07  0.570E-07
   6.290  0.155E-07  0.155E-07
   6.305  0.112E-07  0.112E-07
   6.320  0.430E-07  0.430E-07
   6.335  0.205E-06  0.205E-06
   6.350  0.898E-06  0.898E-06
   6.365  0.358E-05  0.358E-05
   6.380  0.130E-04  0.130E-04
   6.395  0.429E-04  0.429E-04
   6.410  0.129E-03  0.129E-03
   6.425  0.353E-03  0.353E-03
   6.440  0.879E-03  0.879E-03
   6.455  0.200E-02  0.200E-02
   6.470  0.414E-02  0.414E-02
   6.485  0.783E-02  0.783E-02
   6.500  0.135E-01  0.135E-01
   6.515  0.215E-01  0.215E-01
   6.530  0.314E-01  0.314E-01
   6.545  0.423E-01  0.423E-01
   6.560  0.531E-01  0.531E-01
   6.575  0.628E-01  0.628E-01
   6.590  0.715E-01  0.715E-01
   6.605  0.802E-01  0.802E-01
   6.620  0.914E-01  0.914E-01
   6.635  0.108E+00  0.108E+00
   6.650  0.131E+00  0.131E+00
   6.665  0.159E+00  0.159E+00
   6.680  0.191E+00  0.191E+00
   6.695  0.221E+00  0.221E+00
   6.710  0.243E+00  0.243E+00
   6.725  0.255E+00  0.255E+00
   6.740  0.254E+00  0.254E+00
   6.755  0.244E+00  0.244E+00
   6.770  0.228E+00  0.228E+00
   6.785  0.210E+00  0.210E+00
   6.800  0.192E+00  0.192E+00
   6.815  0.176E+00  0.176E+00
   6.830  0.163E+00  0.163E+00
   6.845  0.152E+00  0.152E+00
   6.860  0.143E+00  0.143E+00
   6.875  0.135E+00  0.135E+00
   6.890  0.129E+00  0.129E+00
   6.905  0.124E+00  0.124E+00
   6.920  0.119E+00  0.119E+00
   6.935  0.115E+00  0.115E+00
   6.950  0.111E+00  0.111E+00
   6.965  0.108E+00  0.108E+00
   6.980  0.104E+00  0.104E+00
   6.995  0.101E+00  0.101E+00
   7.010  0.989E-01  0.989E-01
   7.025  0.969E-01  0.969E-01
   7.040  0.949E-01  0.949E-01
   7.055  0.927E-01  0.927E-01
   7.070  0.906E-01  0.906E-01
   7.085  0.890E-01  0.890E-01
   7.100  0.888E-01  0.888E-01
   7.115  0.907E-01  0.907E-01
   7.130  0.950E-01  0.950E-01
   7.145  0.102E+00  0.102E+00
   7.160  0.110E+00  0.110E+00
   7.175  0.119E+00  0.119E+00
   7.190  0.128E+00  0.128E+00
   7.205  0.136E+00  0.136E+00
   7.220  0.142E+00  0.142E+00
   7.235  0.146E+00  0.146E+00
   7.250  0.147E+00  0.147E+00
   7.265  0.145E+00  0.145E+00
   7.280  0.141E+00  0.141E+00
   7.295  0.136E+00  0.136E+00
   7.310  0.130E+00  0.130E+00
   7.325  0.126E+00  0.126E+00
   7.340  0.122E+00  0.122E+00
   7.355  0.120E+00  0.120E+00
   7.370  0.117E+00  0.117E+00
   7.385  0.115E+00  0.115E+00
   7.400  0.112E+00  0.112E+00
   7.415  0.111E+00  0.111E+00
   7.430  0.113E+00  0.113E+00
   7.445  0.120E+00  0.120E+00
   7.460  0.135E+00  0.135E+00
   7.475  0.158E+00  0.158E+00
   7.490  0.189E+00  0.189E+00
   7.505  0.226E+00  0.226E+00
   7.520  0.264E+00  0.264E+00
   7.535  0.296E+00  0.296E+00
   7.550  0.319E+00  0.319E+00
   7.565  0.328E+00  0.328E+00
   7.580  0.324E+00  0.324E+00
   7.595  0.311E+00  0.311E+00
   7.610  0.292E+00  0.292E+00
   7.625  0.271E+00  0.271E+00
   7.640  0.252E+00  0.252E+00
   7.655  0.235E+00  0.235E+00
   7.670  0.223E+00  0.223E+00
   7.685  0.214E+00  0.214E+00
   7.700  0.207E+00  0.207E+00
   7.715  0.203E+00  0.203E+00
   7.730  0.200E+00  0.200E+00
   7.745  0.197E+00  0.197E+00
   7.760  0.194E+00  0.194E+00
   7.775  0.189E+00  0.189E+00
   7.790  0.183E+00  0.183E+00
   7.805  0.176E+00  0.176E+00
   7.820  0.169E+00  0.169E+00
   7.835  0.165E+00  0.165E+00
   7.850  0.162E+00  0.162E+00
   7.865  0.160E+00  0.160E+00
   7.880  0.159E+00  0.159E+00
   7.895  0.156E+00  0.156E+00
   7.910  0.154E+00  0.154E+00
   7.925  0.153E+00  0.153E+00
   7.940  0.154E+00  0.154E+00
   7.955  0.156E+00  0.156E+00
   7.970  0.158E+00  0.158E+00
   7.985  0.158E+00  0.158E+00
   8.000  0.156E+00  0.156E+00
   8.015  0.153E+00  0.153E+00
   8.030  0.149E+00  0.149E+00
   8.045  0.147E+00  0.147E+00
   8.060  0.148E+00  0.148E+00
   8.075  0.151E+00  0.151E+00
   8.090  0.156E+00  0.156E+00
   8.105  0.160E+00  0.160E+00
   8.120  0.164E+00  0.164E+00
   8.135  0.168E+00  0.168E+00
   8.150  0.170E+00  0.170E+00
   8.165  0.172E+00  0.172E+00
   8.180  0.173E+00  0.173E+00
   8.195  0.172E+00  0.172E+00
   8.210  0.168E+00  0.168E+00
   8.225  0.160E+00  0.160E+00
   8.240  0.149E+00  0.149E+00
   8.255  0.137E+00  0.137E+00
   8.270  0.125E+00  0.125E+00
   8.285  0.115E+00  0.115E+00
   8.300  0.107E+00  0.107E+00
   8.315  0.998E-01  0.998E-01
   8.330  0.929E-01  0.929E-01
   8.345  0.859E-01  0.859E-01
   8.360  0.792E-01  0.792E-01
   8.375  0.738E-01  0.738E-01
   8.390  0.700E-01  0.700E-01
   8.405  0.678E-01  0.678E-01
   8.420  0.668E-01  0.668E-01
   8.435  0.662E-01  0.662E-01
   8.450  0.660E-01  0.660E-01
   8.465  0.660E-01  0.660E-01
   8.480  0.665E-01  0.665E-01
   8.495  0.676E-01  0.676E-01
   8.510  0.686E-01  0.686E-01
   8.525  0.693E-01  0.693E-01
   8.540  0.692E-01  0.692E-01
   8.555  0.684E-01  0.684E-01
   8.570  0.675E-01  0.675E-01
   8.585  0.674E-01  0.674E-01
   8.600  0.686E-01  0.686E-01
   8.615  0.710E-01  0.710E-01
   8.630  0.736E-01  0.736E-01
   8.645  0.754E-01  0.754E-01
   8.660  0.752E-01  0.752E-01
   8.675  0.727E-01  0.727E-01
   8.690  0.680E-01  0.680E-01
   8.705  0.620E-01  0.620E-01
   8.720  0.559E-01  0.559E-01
   8.735  0.508E-01  0.508E-01
   8.750  0.476E-01  0.476E-01
   8.765  0.464E-01  0.464E-01
   8.780  0.468E-01  0.468E-01
   8.795  0.483E-01  0.483E-01
   8.810  0.501E-01  0.501E-01
   8.825  0.519E-01  0.519E-01
   8.840  0.538E-01  0.538E-01
   8.855  0.562E-01  0.562E-01
   8.870  0.596E-01  0.596E-01
   8.885  0.641E-01  0.641E-01
   8.900  0.695E-01  0.695E-01
   8.915  0.751E-01  0.751E-01
   8.930  0.799E-01  0.799E-01
   8.945  0.833E-01  0.833E-01
   8.960  0.851E-01  0.851E-01
   8.975  0.859E-01  0.859E-01
   8.990  0.865E-01  0.865E-01
   9.005  0.878E-01  0.878E-01
   9.020  0.903E-01  0.903E-01
   9.035  0.938E-01  0.938E-01
   9.050  0.971E-01  0.971E-01
   9.065  0.992E-01  0.992E-01
   9.080  0.987E-01  0.987E-01
   9.095  0.950E-01  0.950E-01
   9.110  0.885E-01  0.885E-01
   9.125  0.799E-01  0.799E-01
   9.140  0.705E-01  0.705E-01
   9.155  0.612E-01  0.612E-01
   9.170  0.527E-01  0.527E-01
   9.185  0.457E-01  0.457E-01
   9.200  0.406E-01  0.406E-01
   9.215  0.383E-01  0.383E-01
   9.230  0.399E-01  0.399E-01
   9.245  0.469E-01  0.469E-01
   9.260  0.605E-01  0.605E-01
   9.275  0.811E-01  0.811E-01
   9.290  0.107E+00  0.107E+00
   9.305  0.136E+00  0.136E+00
   9.320  0.164E+00  0.164E+00
   9.335  0.186E+00  0.186E+00
   9.350  0.198E+00  0.198E+00
   9.365  0.200E+00  0.200E+00
   9.380  0.193E+00  0.193E+00
   9.395  0.181E+00  0.181E+00
   9.410  0.166E+00  0.166E+00
   9.425  0.151E+00  0.151E+00
   9.440  0.138E+00  0.138E+00
   9.455  0.127E+00  0.127E+00
   9.470  0.117E+00  0.117E+00
   9.485  0.108E+00  0.108E+00
   9.500  0.102E+00  0.102E+00
   9.515  0.989E-01  0.989E-01
   9.530  0.980E-01  0.980E-01
   9.545  0.986E-01  0.986E-01
   9.560  0.993E-01  0.993E-01
   9.575  0.988E-01  0.988E-01
   9.590  0.966E-01  0.966E-01
   9.605  0.928E-01  0.928E-01
   9.620  0.886E-01  0.886E-01
   9.635  0.852E-01  0.852E-01
   9.650  0.833E-01  0.833E-01
   9.665  0.829E-01  0.829E-01
   9.680  0.832E-01  0.832E-01
   9.695  0.829E-01  0.829E-01
   9.710  0.812E-01  0.812E-01
   9.725  0.783E-01  0.783E-01
   9.740  0.748E-01  0.748E-01
   9.755  0.718E-01  0.718E-01
   9.770  0.703E-01  0.703E-01
   9.785  0.704E-01  0.704E-01
   9.800  0.719E-01  0.719E-01
   9.815  0.744E-01  0.744E-01
   9.830  0.771E-01  0.771E-01
   9.845  0.796E-01  0.796E-01
   9.860  0.812E-01  0.812E-01
   9.875  0.812E-01  0.812E-01
   9.890  0.792E-01  0.792E-01
   9.905  0.756E-01  0.756E-01
   9.920  0.712E-01  0.712E-01
   9.935  0.670E-01  0.670E-01
   9.950  0.642E-01  0.642E-01
   9.965  0.628E-01  0.628E-01
   9.980  0.626E-01  0.626E-01
   9.995  0.630E-01  0.630E-01
  10.010  0.637E-01  0.637E-01
  10.025  0.651E-01  0.651E-01
  10.040  0.684E-01  0.684E-01
  10.055  0.746E-01  0.746E-01
  10.070  0.847E-01  0.847E-01
  10.085  0.987E-01  0.987E-01
  10.100  0.115E+00  0.115E+00
  10.115  0.132E+00  0.132E+00
  10.130  0.147E+00  0.147E+00
  10.145  0.156E+00  0.156E+00
  10.160  0.158E+00  0.158E+00
  10.175  0.154E+00  0.154E+00
  10.190  0.146E+00  0.146E+00
  10.205  0.135E+00  0.135E+00
  10.220  0.126E+00  0.126E+00
  10.235  0.119E+00  0.119E+00
  10.250  0.116E+00  0.116E+00
  10.265  0.115E+00  0.115E+00
  10.280  0.114E+00  0.114E+00
  10.295  0.112E+00  0.112E+00
  10.310  0.109E+00  0.109E+00
  10.325  0.103E+00  0.103E+00
  10.340  0.973E-01  0.973E-01
  10.355  0.920E-01  0.920E-01
  10.370  0.882E-01  0.882E-01
  10.385  0.859E-01  0.859E-01
  10.400  0.844E-01  0.844E-01
  10.415  0.823E-01  0.823E-01
  10.430  0.790E-01  0.790E-01
  10.445  0.740E-01  0.740E-01
  10.460  0.679E-01  0.679E-01
  10.475  0.612E-01  0.612E-01
  10.490  0.544E-01  0.544E-01
  10.505  0.481E-01  0.481E-01
  10.520  0.426E-01  0.426E-01
  10.535  0.383E-01  0.383E-01
  10.550  0.356E-01  0.356E-01
  10.565  0.347E-01  0.347E-01
  10.580  0.356E-01  0.356E-01
  10.595  0.380E-01  0.380E-01
  10.610  0.412E-01  0.412E-01
  10.625  0.445E-01  0.445E-01
  10.640  0.469E-01  0.469E-01
  10.655  0.480E-01  0.480E-01
  10.670  0.473E-01  0.473E-01
  10.685  0.449E-01  0.449E-01
  10.700  0.409E-01  0.409E-01
  10.715  0.360E-01  0.360E-01
  10.730  0.311E-01  0.311E-01
  10.745  0.271E-01  0.271E-01
  10.760  0.250E-01  0.250E-01
  10.775  0.254E-01  0.254E-01
  10.790  0.283E-01  0.283E-01
  10.805  0.332E-01  0.332E-01
  10.820  0.388E-01  0.388E-01
  10.835  0.440E-01  0.440E-01
  10.850  0.476E-01  0.476E-01
  10.865  0.491E-01  0.491E-01
  10.880  0.485E-01  0.485E-01
  10.895  0.466E-01  0.466E-01
  10.910  0.442E-01  0.442E-01
  10.925  0.424E-01  0.424E-01
  10.940  0.425E-01  0.425E-01
  10.955  0.457E-01  0.457E-01
  10.970  0.528E-01  0.528E-01
  10.985  0.639E-01  0.639E-01
  11.000  0.781E-01  0.781E-01
  11.015  0.931E-01  0.931E-01
  11.030  0.106E+00  0.106E+00
  11.045  0.115E+00  0.115E+00
  11.060  0.119E+00  0.119E+00
  11.075  0.118E+00  0.118E+00
  11.090  0.113E+00  0.113E+00
  11.105  0.107E+00  0.107E+00
  11.120  0.101E+00  0.101E+00
  11.135  0.960E-01  0.960E-01
  11.150  0.913E-01  0.913E-01
  11.165  0.874E-01  0.874E-01
  11.180  0.840E-01  0.840E-01
  11.195  0.816E-01  0.816E-01
  11.210  0.802E-01  0.802E-01
  11.225  0.797E-01  0.797E-01
  11.240  0.792E-01  0.792E-01
  11.255  0.778E-01  0.778E-01
  11.270  0.748E-01  0.748E-01
  11.285  0.706E-01  0.706E-01
  11.300  0.667E-01  0.667E-01
  11.315  0.649E-01  0.649E-01
  11.330  0.666E-01  0.666E-01
  11.345  0.718E-01  0.718E-01
  11.360  0.789E-01  0.789E-01
  11.375  0.857E-01  0.857E-01
  11.390  0.898E-01  0.898E-01
  11.405  0.902E-01  0.902E-01
  11.420  0.874E-01  0.874E-01
  11.435  0.829E-01  0.829E-01
  11.450  0.789E-01  0.789E-01
  11.465  0.768E-01  0.768E-01
  11.480  0.772E-01  0.772E-01
  11.495  0.792E-01  0.792E-01
  11.510  0.819E-01  0.819E-01
  11.525  0.840E-01  0.840E-01
  11.540  0.855E-01  0.855E-01
  11.555  0.867E-01  0.867E-01
  11.570  0.884E-01  0.884E-01
  11.585  0.910E-01  0.910E-01
  11.600  0.944E-01  0.944E-01
  11.615  0.977E-01  0.977E-01
  11.630  0.995E-01  0.995E-01
  11.645  0.988E-01  0.988E-01
  11.660  0.950E-01  0.950E-01
  11.675  0.885E-01  0.885E-01
  11.690  0.805E-01  0.805E-01
  11.705  0.727E-01  0.727E-01
  11.720  0.662E-01  0.662E-01
  11.735  0.617E-01  0.617E-01
  11.750  0.592E-01  0.592E-01
  11.765  0.582E-01  0.582E-01
  11.780  0.581E-01  0.581E-01
  11.795  0.582E-01  0.582E-01
  11.810  0.582E-01  0.582E-01
  11.825  0.581E-01  0.581E-01
  11.840  0.579E-01  0.579E-01
  11.855  0.577E-01  0.577E-01
  11.870  0.575E-01  0.575E-01
  11.885  0.567E-01  0.567E-01
  11.900  0.553E-01  0.553E-01
  11.915  0.528E-01  0.528E-01
  11.930  0.494E-01  0.494E-01
  11.945  0.457E-01  0.457E-01
  11.960  0.421E-01  0.421E-01
  11.975  0.396E-01  0.396E-01
  11.990  0.386E-01  0.386E-01
  12.005  0.396E-01  0.396E-01
  12.020  0.423E-01  0.423E-01
  12.035  0.463E-01  0.463E-01
  12.050  0.509E-01  0.509E-01
  12.065  0.554E-01  0.554E-01
  12.080  0.593E-01  0.593E-01
  12.095  0.625E-01  0.625E-01
  12.110  0.651E-01  0.651E-01
  12.125  0.674E-01  0.674E-01
  12.140  0.700E-01  0.700E-01
  12.155  0.730E-01  0.730E-01
  12.170  0.763E-01  0.763E-01
  12.185  0.794E-01  0.794E-01
  12.200  0.816E-01  0.816E-01
  12.215  0.821E-01  0.821E-01
  12.230  0.803E-01  0.803E-01
  12.245  0.763E-01  0.763E-01
  12.260  0.707E-01  0.707E-01
  12.275  0.645E-01  0.645E-01
  12.290  0.588E-01  0.588E-01
  12.305  0.546E-01  0.546E-01
  12.320  0.524E-01  0.524E-01
  12.335  0.521E-01  0.521E-01
  12.350  0.531E-01  0.531E-01
  12.365  0.548E-01  0.548E-01
  12.380  0.566E-01  0.566E-01
  12.395  0.582E-01  0.582E-01
  12.410  0.592E-01  0.592E-01
  12.425  0.594E-01  0.594E-01
  12.440  0.588E-01  0.588E-01
  12.455  0.577E-01  0.577E-01
  12.470  0.563E-01  0.563E-01
  12.485  0.550E-01  0.550E-01
  12.500  0.538E-01  0.538E-01
  12.515  0.528E-01  0.528E-01
  12.530  0.521E-01  0.521E-01
  12.545  0.518E-01  0.518E-01
  12.560  0.521E-01  0.521E-01
  12.575  0.533E-01  0.533E-01
  12.590  0.554E-01  0.554E-01
  12.605  0.578E-01  0.578E-01
  12.620  0.599E-01  0.599E-01
  12.635  0.607E-01  0.607E-01
  12.650  0.599E-01  0.599E-01
  12.665  0.576E-01  0.576E-01
  12.680  0.543E-01  0.543E-01
  12.695  0.506E-01  0.506E-01
  12.710  0.470E-01  0.470E-01
  12.725  0.438E-01  0.438E-01
  12.740  0.413E-01  0.413E-01
  12.755  0.398E-01  0.398E-01
  12.770  0.393E-01  0.393E-01
  12.785  0.401E-01  0.401E-01
  12.800  0.421E-01  0.421E-01
  12.815  0.449E-01  0.449E-01
  12.830  0.480E-01  0.480E-01
  12.845  0.509E-01  0.509E-01
  12.860  0.529E-01  0.529E-01
  12.875  0.536E-01  0.536E-01
  12.890  0.528E-01  0.528E-01
  12.905  0.507E-01  0.507E-01
  12.920  0.479E-01  0.479E-01
  12.935  0.453E-01  0.453E-01
  12.950  0.437E-01  0.437E-01
  12.965  0.434E-01  0.434E-01
  12.980  0.445E-01  0.445E-01
  12.995  0.465E-01  0.465E-01
  13.010  0.490E-01  0.490E-01
  13.025  0.513E-01  0.513E-01
  13.040  0.532E-01  0.532E-01
  13.055  0.548E-01  0.548E-01
  13.070  0.558E-01  0.558E-01
  13.085  0.564E-01  0.564E-01
  13.100  0.562E-01  0.562E-01
  13.115  0.554E-01  0.554E-01
  13.130  0.539E-01  0.539E-01
  13.145  0.521E-01  0.521E-01
  13.160  0.501E-01  0.501E-01
  13.175  0.479E-01  0.479E-01
  13.190  0.457E-01  0.457E-01
  13.205  0.433E-01  0.433E-01
  13.220  0.407E-01  0.407E-01
  13.235  0.381E-01  0.381E-01
  13.250  0.360E-01  0.360E-01
  13.265  0.348E-01  0.348E-01
  13.280  0.350E-01  0.350E-01
  13.295  0.368E-01  0.368E-01
  13.310  0.400E-01  0.400E-01
  13.325  0.440E-01  0.440E-01
  13.340  0.480E-01  0.480E-01
  13.355  0.511E-01  0.511E-01
  13.370  0.526E-01  0.526E-01
  13.385  0.522E-01  0.522E-01
  13.400  0.500E-01  0.500E-01
  13.415  0.465E-01  0.465E-01
  13.430  0.423E-01  0.423E-01
  13.445  0.381E-01  0.381E-01
  13.460  0.346E-01  0.346E-01
  13.475  0.323E-01  0.323E-01
  13.490  0.316E-01  0.316E-01
  13.505  0.327E-01  0.327E-01
  13.520  0.354E-01  0.354E-01
  13.535  0.392E-01  0.392E-01
  13.550  0.434E-01  0.434E-01
  13.565  0.472E-01  0.472E-01
  13.580  0.500E-01  0.500E-01
  13.595  0.514E-01  0.514E-01
  13.610  0.518E-01  0.518E-01
  13.625  0.519E-01  0.519E-01
  13.640  0.524E-01  0.524E-01
  13.655  0.539E-01  0.539E-01
  13.670  0.560E-01  0.560E-01
  13.685  0.580E-01  0.580E-01
  13.700  0.592E-01  0.592E-01
  13.715  0.589E-01  0.589E-01
  13.730  0.574E-01  0.574E-01
  13.745  0.550E-01  0.550E-01
  13.760  0.524E-01  0.524E-01
  13.775  0.500E-01  0.500E-01
  13.790  0.482E-01  0.482E-01
  13.805  0.468E-01  0.468E-01
  13.820  0.456E-01  0.456E-01
  13.835  0.444E-01  0.444E-01
  13.850  0.429E-01  0.429E-01
  13.865  0.413E-01  0.413E-01
  13.880  0.398E-01  0.398E-01
  13.895  0.390E-01  0.390E-01
  13.910  0.393E-01  0.393E-01
  13.925  0.411E-01  0.411E-01
  13.940  0.442E-01  0.442E-01
  13.955  0.482E-01  0.482E-01
  13.970  0.524E-01  0.524E-01
  13.985  0.562E-01  0.562E-01
  14.000  0.592E-01  0.592E-01
  14.015  0.609E-01  0.609E-01
  14.030  0.609E-01  0.609E-01
  14.045  0.591E-01  0.591E-01
  14.060  0.557E-01  0.557E-01
  14.075  0.514E-01  0.514E-01
  14.090  0.467E-01  0.467E-01
  14.105  0.424E-01  0.424E-01
  14.120  0.392E-01  0.392E-01
  14.135  0.374E-01  0.374E-01
  14.150  0.371E-01  0.371E-01
  14.165  0.385E-01  0.385E-01
  14.180  0.413E-01  0.413E-01
  14.195  0.449E-01  0.449E-01
  14.210  0.485E-01  0.485E-01
  14.225  0.512E-01  0.512E-01
  14.240  0.524E-01  0.524E-01
  14.255  0.520E-01  0.520E-01
  14.270  0.506E-01  0.506E-01
  14.285  0.488E-01  0.488E-01
  14.300  0.474E-01  0.474E-01
  14.315  0.467E-01  0.467E-01
  14.330  0.470E-01  0.470E-01
  14.345  0.478E-01  0.478E-01
  14.360  0.487E-01  0.487E-01
  14.375  0.494E-01  0.494E-01
  14.390  0.495E-01  0.495E-01
  14.405  0.488E-01  0.488E-01
  14.420  0.473E-01  0.473E-01
  14.435  0.452E-01  0.452E-01
  14.450  0.428E-01  0.428E-01
  14.465  0.403E-01  0.403E-01
  14.480  0.380E-01  0.380E-01
  14.495  0.360E-01  0.360E-01
  14.510  0.343E-01  0.343E-01
  14.525  0.329E-01  0.329E-01
  14.540  0.319E-01  0.319E-01
  14.555  0.311E-01  0.311E-01
  14.570  0.306E-01  0.306E-01
  14.585  0.303E-01  0.303E-01
  14.600  0.303E-01  0.303E-01
  14.615  0.307E-01  0.307E-01
  14.630  0.316E-01  0.316E-01
  14.645  0.329E-01  0.329E-01
  14.660  0.346E-01  0.346E-01
  14.675  0.366E-01  0.366E-01
  14.690  0.389E-01  0.389E-01
  14.705  0.416E-01  0.416E-01
  14.720  0.446E-01  0.446E-01
  14.735  0.477E-01  0.477E-01
  14.750  0.509E-01  0.509E-01
  14.765  0.540E-01  0.540E-01
  14.780  0.570E-01  0.570E-01
  14.795  0.600E-01  0.600E-01
  14.810  0.626E-01  0.626E-01
  14.825  0.645E-01  0.645E-01
  14.840  0.652E-01  0.652E-01
  14.855  0.642E-01  0.642E-01
  14.870  0.612E-01  0.612E-01
  14.885  0.563E-01  0.563E-01
  14.900  0.501E-01  0.501E-01
  14.915  0.432E-01  0.432E-01
  14.930  0.367E-01  0.367E-01
  14.945  0.311E-01  0.311E-01
  14.960  0.268E-01  0.268E-01
  14.975  0.239E-01  0.239E-01
  14.990  0.221E-01  0.221E-01
  15.005  0.212E-01  0.212E-01
  15.020  0.210E-01  0.210E-01
  15.035  0.212E-01  0.212E-01
  15.050  0.217E-01  0.217E-01
  15.065  0.225E-01  0.225E-01
  15.080  0.232E-01  0.232E-01
  15.095  0.239E-01  0.239E-01
  15.110  0.242E-01  0.242E-01
  15.125  0.241E-01  0.241E-01
  15.140  0.235E-01  0.235E-01
  15.155  0.227E-01  0.227E-01
  15.170  0.219E-01  0.219E-01
  15.185  0.212E-01  0.212E-01
  15.200  0.208E-01  0.208E-01
  15.215  0.205E-01  0.205E-01
  15.230  0.200E-01  0.200E-01
  15.245  0.192E-01  0.192E-01
  15.260  0.180E-01  0.180E-01
  15.275  0.165E-01  0.165E-01
  15.290  0.149E-01  0.149E-01
  15.305  0.135E-01  0.135E-01
  15.320  0.127E-01  0.127E-01
  15.335  0.126E-01  0.126E-01
  15.350  0.133E-01  0.133E-01
  15.365  0.146E-01  0.146E-01
  15.380  0.164E-01  0.164E-01
  15.395  0.182E-01  0.182E-01
  15.410  0.198E-01  0.198E-01
  15.425  0.211E-01  0.211E-01
  15.440  0.218E-01  0.218E-01
  15.455  0.220E-01  0.220E-01
  15.470  0.216E-01  0.216E-01
  15.485  0.209E-01  0.209E-01
  15.500  0.199E-01  0.199E-01
  15.515  0.191E-01  0.191E-01
  15.530  0.185E-01  0.185E-01
  15.545  0.184E-01  0.184E-01
  15.560  0.184E-01  0.184E-01
  15.575  0.184E-01  0.184E-01
  15.590  0.178E-01  0.178E-01
  15.605  0.167E-01  0.167E-01
  15.620  0.151E-01  0.151E-01
  15.635  0.132E-01  0.132E-01
  15.650  0.115E-01  0.115E-01
  15.665  0.101E-01  0.101E-01
  15.680  0.930E-02  0.930E-02
  15.695  0.908E-02  0.908E-02
  15.710  0.946E-02  0.946E-02
  15.725  0.105E-01  0.105E-01
  15.740  0.120E-01  0.120E-01
  15.755  0.141E-01  0.141E-01
  15.770  0.163E-01  0.163E-01
  15.785  0.184E-01  0.184E-01
  15.800  0.200E-01  0.200E-01
  15.815  0.208E-01  0.208E-01
  15.830  0.208E-01  0.208E-01
  15.845  0.201E-01  0.201E-01
  15.860  0.189E-01  0.189E-01
  15.875  0.175E-01  0.175E-01
  15.890  0.159E-01  0.159E-01
  15.905  0.145E-01  0.145E-01
  15.920  0.133E-01  0.133E-01
  15.935  0.124E-01  0.124E-01
  15.950  0.118E-01  0.118E-01
  15.965  0.115E-01  0.115E-01
  15.980  0.111E-01  0.111E-01
  15.995  0.107E-01  0.107E-01
  16.010  0.100E-01  0.100E-01
  16.025  0.922E-02  0.922E-02
  16.040  0.838E-02  0.838E-02
  16.055  0.774E-02  0.774E-02
  16.070  0.754E-02  0.754E-02
  16.085  0.797E-02  0.797E-02
  16.100  0.907E-02  0.907E-02
  16.115  0.107E-01  0.107E-01
  16.130  0.126E-01  0.126E-01
  16.145  0.144E-01  0.144E-01
  16.160  0.157E-01  0.157E-01
  16.175  0.163E-01  0.163E-01
  16.190  0.163E-01  0.163E-01
  16.205  0.156E-01  0.156E-01
  16.220  0.145E-01  0.145E-01
  16.235  0.131E-01  0.131E-01
  16.250  0.118E-01  0.118E-01
  16.265  0.105E-01  0.105E-01
  16.280  0.932E-02  0.932E-02
  16.295  0.834E-02  0.834E-02
  16.310  0.756E-02  0.756E-02
  16.325  0.701E-02  0.701E-02
  16.340  0.672E-02  0.672E-02
  16.355  0.672E-02  0.672E-02
  16.370  0.698E-02  0.698E-02
  16.385  0.743E-02  0.743E-02
  16.400  0.796E-02  0.796E-02
  16.415  0.853E-02  0.853E-02
  16.430  0.912E-02  0.912E-02
  16.445  0.980E-02  0.980E-02
  16.460  0.106E-01  0.106E-01
  16.475  0.115E-01  0.115E-01
  16.490  0.124E-01  0.124E-01
  16.505  0.131E-01  0.131E-01
  16.520  0.135E-01  0.135E-01
  16.535  0.135E-01  0.135E-01
  16.550  0.132E-01  0.132E-01
  16.565  0.127E-01  0.127E-01
  16.580  0.124E-01  0.124E-01
  16.595  0.121E-01  0.121E-01
  16.610  0.118E-01  0.118E-01
  16.625  0.114E-01  0.114E-01
  16.640  0.108E-01  0.108E-01
  16.655  0.100E-01  0.100E-01
  16.670  0.907E-02  0.907E-02
  16.685  0.807E-02  0.807E-02
  16.700  0.719E-02  0.719E-02
  16.715  0.657E-02  0.657E-02
  16.730  0.636E-02  0.636E-02
  16.745  0.665E-02  0.665E-02
  16.760  0.750E-02  0.750E-02
  16.775  0.880E-02  0.880E-02
  16.790  0.103E-01  0.103E-01
  16.805  0.118E-01  0.118E-01
  16.820  0.129E-01  0.129E-01
  16.835  0.132E-01  0.132E-01
  16.850  0.127E-01  0.127E-01
  16.865  0.115E-01  0.115E-01
  16.880  0.990E-02  0.990E-02
  16.895  0.822E-02  0.822E-02
  16.910  0.690E-02  0.690E-02
  16.925  0.623E-02  0.623E-02
  16.940  0.636E-02  0.636E-02
  16.955  0.731E-02  0.731E-02
  16.970  0.905E-02  0.905E-02
  16.985  0.115E-01  0.115E-01
  17.000  0.144E-01  0.144E-01
  17.015  0.176E-01  0.176E-01
  17.030  0.207E-01  0.207E-01
  17.045  0.234E-01  0.234E-01
  17.060  0.252E-01  0.252E-01
  17.075  0.261E-01  0.261E-01
  17.090  0.259E-01  0.259E-01
  17.105  0.251E-01  0.251E-01
  17.120  0.241E-01  0.241E-01
  17.135  0.231E-01  0.231E-01
  17.150  0.225E-01  0.225E-01
  17.165  0.223E-01  0.223E-01
  17.180  0.222E-01  0.222E-01
  17.195  0.221E-01  0.221E-01
  17.210  0.218E-01  0.218E-01
  17.225  0.211E-01  0.211E-01
  17.240  0.200E-01  0.200E-01
  17.255  0.187E-01  0.187E-01
  17.270  0.170E-01  0.170E-01
  17.285  0.152E-01  0.152E-01
  17.300  0.132E-01  0.132E-01
  17.315  0.113E-01  0.113E-01
  17.330  0.954E-02  0.954E-02
  17.345  0.814E-02  0.814E-02
  17.360  0.718E-02  0.718E-02
  17.375  0.667E-02  0.667E-02
  17.390  0.656E-02  0.656E-02
  17.405  0.677E-02  0.677E-02
  17.420  0.723E-02  0.723E-02
  17.435  0.790E-02  0.790E-02
  17.450  0.872E-02  0.872E-02
  17.465  0.964E-02  0.964E-02
  17.480  0.105E-01  0.105E-01
  17.495  0.112E-01  0.112E-01
  17.510  0.116E-01  0.116E-01
  17.525  0.116E-01  0.116E-01
  17.540  0.111E-01  0.111E-01
  17.555  0.102E-01  0.102E-01
  17.570  0.904E-02  0.904E-02
  17.585  0.785E-02  0.785E-02
  17.600  0.677E-02  0.677E-02
  17.615  0.590E-02  0.590E-02
  17.630  0.532E-02  0.532E-02
  17.645  0.505E-02  0.505E-02
  17.660  0.507E-02  0.507E-02
  17.675  0.534E-02  0.534E-02
  17.690  0.581E-02  0.581E-02
  17.705  0.637E-02  0.637E-02
  17.720  0.694E-02  0.694E-02
  17.735  0.745E-02  0.745E-02
  17.750  0.786E-02  0.786E-02
  17.765  0.822E-02  0.822E-02
  17.780  0.857E-02  0.857E-02
  17.795  0.896E-02  0.896E-02
  17.810  0.938E-02  0.938E-02
  17.825  0.977E-02  0.977E-02
  17.840  0.100E-01  0.100E-01
  17.855  0.100E-01  0.100E-01
  17.870  0.972E-02  0.972E-02
  17.885  0.919E-02  0.919E-02
  17.900  0.856E-02  0.856E-02
  17.915  0.799E-02  0.799E-02
  17.930  0.758E-02  0.758E-02
  17.945  0.733E-02  0.733E-02
  17.960  0.716E-02  0.716E-02
  17.975  0.693E-02  0.693E-02
  17.990  0.654E-02  0.654E-02
  18.005  0.596E-02  0.596E-02
  18.020  0.528E-02  0.528E-02
  18.035  0.466E-02  0.466E-02
  18.050  0.432E-02  0.432E-02
  18.065  0.444E-02  0.444E-02
  18.080  0.510E-02  0.510E-02
  18.095  0.624E-02  0.624E-02
  18.110  0.766E-02  0.766E-02
  18.125  0.909E-02  0.909E-02
  18.140  0.102E-01  0.102E-01
  18.155  0.109E-01  0.109E-01
  18.170  0.110E-01  0.110E-01
  18.185  0.107E-01  0.107E-01
  18.200  0.100E-01  0.100E-01
  18.215  0.925E-02  0.925E-02
  18.230  0.837E-02  0.837E-02
  18.245  0.747E-02  0.747E-02
  18.260  0.660E-02  0.660E-02
  18.275  0.584E-02  0.584E-02
  18.290  0.530E-02  0.530E-02
  18.305  0.507E-02  0.507E-02
  18.320  0.519E-02  0.519E-02
  18.335  0.560E-02  0.560E-02
  18.350  0.620E-02  0.620E-02
  18.365  0.681E-02  0.681E-02
  18.380  0.731E-02  0.731E-02
  18.395  0.758E-02  0.758E-02
  18.410  0.762E-02  0.762E-02
  18.425  0.746E-02  0.746E-02
  18.440  0.720E-02  0.720E-02
  18.455  0.693E-02  0.693E-02
  18.470  0.674E-02  0.674E-02
  18.485  0.670E-02  0.670E-02
  18.500  0.683E-02  0.683E-02
  18.515  0.710E-02  0.710E-02
  18.530  0.741E-02  0.741E-02
  18.545  0.765E-02  0.765E-02
  18.560  0.768E-02  0.768E-02
  18.575  0.742E-02  0.742E-02
  18.590  0.690E-02  0.690E-02
  18.605  0.627E-02  0.627E-02
  18.620  0.581E-02  0.581E-02
  18.635  0.586E-02  0.586E-02
  18.650  0.675E-02  0.675E-02
  18.665  0.873E-02  0.873E-02
  18.680  0.119E-01  0.119E-01
  18.695  0.160E-01  0.160E-01
  18.710  0.209E-01  0.209E-01
  18.725  0.259E-01  0.259E-01
  18.740  0.304E-01  0.304E-01
  18.755  0.341E-01  0.341E-01
  18.770  0.365E-01  0.365E-01
  18.785  0.377E-01  0.377E-01
  18.800  0.380E-01  0.380E-01
  18.815  0.377E-01  0.377E-01
  18.830  0.374E-01  0.374E-01
  18.845  0.377E-01  0.377E-01
  18.860  0.393E-01  0.393E-01
  18.875  0.429E-01  0.429E-01
  18.890  0.490E-01  0.490E-01
  18.905  0.578E-01  0.578E-01
  18.920  0.689E-01  0.689E-01
  18.935  0.814E-01  0.814E-01
  18.950  0.937E-01  0.937E-01
  18.965  0.104E+00  0.104E+00
  18.980  0.111E+00  0.111E+00
  18.995  0.114E+00  0.114E+00
  19.010  0.113E+00  0.113E+00
  19.025  0.107E+00  0.107E+00
  19.040  0.981E-01  0.981E-01
  19.055  0.876E-01  0.876E-01
  19.070  0.767E-01  0.767E-01
  19.085  0.667E-01  0.667E-01
  19.100  0.581E-01  0.581E-01
  19.115  0.513E-01  0.513E-01
  19.130  0.462E-01  0.462E-01
  19.145  0.424E-01  0.424E-01
  19.160  0.396E-01  0.396E-01
  19.175  0.373E-01  0.373E-01
  19.190  0.352E-01  0.352E-01
  19.205  0.332E-01  0.332E-01
  19.220  0.314E-01  0.314E-01
  19.235  0.299E-01  0.299E-01
  19.250  0.290E-01  0.290E-01
  19.265  0.289E-01  0.289E-01
  19.280  0.295E-01  0.295E-01
  19.295  0.303E-01  0.303E-01
  19.310  0.311E-01  0.311E-01
  19.325  0.314E-01  0.314E-01
  19.340  0.309E-01  0.309E-01
  19.355  0.299E-01  0.299E-01
  19.370  0.286E-01  0.286E-01
  19.385  0.274E-01  0.274E-01
  19.400  0.265E-01  0.265E-01
  19.415  0.259E-01  0.259E-01
  19.430  0.254E-01  0.254E-01
  19.445  0.248E-01  0.248E-01
  19.460  0.240E-01  0.240E-01
  19.475  0.231E-01  0.231E-01
  19.490  0.223E-01  0.223E-01
  19.505  0.217E-01  0.217E-01
  19.520  0.215E-01  0.215E-01
  19.535  0.218E-01  0.218E-01
  19.550  0.222E-01  0.222E-01
  19.565  0.228E-01  0.228E-01
  19.580  0.232E-01  0.232E-01
  19.595  0.235E-01  0.235E-01
  19.610  0.236E-01  0.236E-01
  19.625  0.235E-01  0.235E-01
  19.640  0.232E-01  0.232E-01
  19.655  0.226E-01  0.226E-01
  19.670  0.218E-01  0.218E-01
  19.685  0.209E-01  0.209E-01
  19.700  0.200E-01  0.200E-01
  19.715  0.193E-01  0.193E-01
  19.730  0.190E-01  0.190E-01
  19.745  0.191E-01  0.191E-01
  19.760  0.197E-01  0.197E-01
  19.775  0.203E-01  0.203E-01
  19.790  0.208E-01  0.208E-01
  19.805  0.209E-01  0.209E-01
  19.820  0.207E-01  0.207E-01
  19.835  0.202E-01  0.202E-01
  19.850  0.195E-01  0.195E-01
  19.865  0.190E-01  0.190E-01
  19.880  0.187E-01  0.187E-01
  19.895  0.186E-01  0.186E-01
  19.910  0.185E-01  0.185E-01
  19.925  0.182E-01  0.182E-01
  19.940  0.178E-01  0.178E-01
  19.955  0.171E-01  0.171E-01
  19.970  0.164E-01  0.164E-01
  19.985  0.157E-01  0.157E-01
  20.000  0.152E-01  0.152E-01
  20.015  0.149E-01  0.149E-01
  20.030  0.148E-01  0.148E-01
  20.045  0.145E-01  0.145E-01
  20.060  0.140E-01  0.140E-01
  20.075  0.131E-01  0.131E-01
  20.090  0.120E-01  0.120E-01
  20.105  0.109E-01  0.109E-01
  20.120  0.102E-01  0.102E-01
  20.135  0.999E-02  0.999E-02
  20.150  0.104E-01  0.104E-01
  20.165  0.113E-01  0.113E-01
  20.180  0.122E-01  0.122E-01
  20.195  0.130E-01  0.130E-01
  20.210  0.134E-01  0.134E-01
  20.225  0.132E-01  0.132E-01
  20.240  0.126E-01  0.126E-01
  20.255  0.118E-01  0.118E-01
  20.270  0.110E-01  0.110E-01
  20.285  0.105E-01  0.105E-01
  20.300  0.100E-01  0.100E-01
  20.315  0.974E-02  0.974E-02
  20.330  0.942E-02  0.942E-02
  20.345  0.902E-02  0.902E-02
  20.360  0.854E-02  0.854E-02
  20.375  0.806E-02  0.806E-02
  20.390  0.769E-02  0.769E-02
  20.405  0.752E-02  0.752E-02
  20.420  0.762E-02  0.762E-02
  20.435  0.799E-02  0.799E-02
  20.450  0.857E-02  0.857E-02
  20.465  0.926E-02  0.926E-02
  20.480  0.989E-02  0.989E-02
  20.495  0.103E-01  0.103E-01
  20.510  0.104E-01  0.104E-01
  20.525  0.102E-01  0.102E-01
  20.540  0.969E-02  0.969E-02
  20.555  0.914E-02  0.914E-02
  20.570  0.863E-02  0.863E-02
  20.585  0.823E-02  0.823E-02
  20.600  0.793E-02  0.793E-02
  20.615  0.770E-02  0.770E-02
  20.630  0.751E-02  0.751E-02
  20.645  0.737E-02  0.737E-02
  20.660  0.733E-02  0.733E-02
  20.675  0.742E-02  0.742E-02
  20.690  0.764E-02  0.764E-02
  20.705  0.795E-02  0.795E-02
  20.720  0.824E-02  0.824E-02
  20.735  0.841E-02  0.841E-02
  20.750  0.838E-02  0.838E-02
  20.765  0.813E-02  0.813E-02
  20.780  0.773E-02  0.773E-02
  20.795  0.727E-02  0.727E-02
  20.810  0.687E-02  0.687E-02
  20.825  0.658E-02  0.658E-02
  20.840  0.641E-02  0.641E-02
  20.855  0.629E-02  0.629E-02
  20.870  0.617E-02  0.617E-02
  20.885  0.600E-02  0.600E-02
  20.900  0.578E-02  0.578E-02
  20.915  0.553E-02  0.553E-02
  20.930  0.529E-02  0.529E-02
  20.945  0.510E-02  0.510E-02
  20.960  0.498E-02  0.498E-02
  20.975  0.494E-02  0.494E-02
  20.990  0.497E-02  0.497E-02
  21.005  0.507E-02  0.507E-02
  21.020  0.524E-02  0.524E-02
  21.035  0.548E-02  0.548E-02
  21.050  0.579E-02  0.579E-02
  21.065  0.614E-02  0.614E-02
  21.080  0.650E-02  0.650E-02
  21.095  0.680E-02  0.680E-02
  21.110  0.697E-02  0.697E-02
  21.125  0.700E-02  0.700E-02
  21.140  0.689E-02  0.689E-02
  21.155  0.669E-02  0.669E-02
  21.170  0.649E-02  0.649E-02
  21.185  0.633E-02  0.633E-02
  21.200  0.622E-02  0.622E-02
  21.215  0.613E-02  0.613E-02
  21.230  0.600E-02  0.600E-02
  21.245  0.577E-02  0.577E-02
  21.260  0.544E-02  0.544E-02
  21.275  0.505E-02  0.505E-02
  21.290  0.469E-02  0.469E-02
  21.305  0.445E-02  0.445E-02
  21.320  0.439E-02  0.439E-02
  21.335  0.450E-02  0.450E-02
  21.350  0.470E-02  0.470E-02
  21.365  0.490E-02  0.490E-02
  21.380  0.503E-02  0.503E-02
  21.395  0.514E-02  0.514E-02
  21.410  0.537E-02  0.537E-02
  21.425  0.590E-02  0.590E-02
  21.440  0.690E-02  0.690E-02
  21.455  0.843E-02  0.843E-02
  21.470  0.104E-01  0.104E-01
  21.485  0.125E-01  0.125E-01
  21.500  0.144E-01  0.144E-01
  21.515  0.157E-01  0.157E-01
  21.530  0.161E-01  0.161E-01
  21.545  0.155E-01  0.155E-01
  21.560  0.143E-01  0.143E-01
  21.575  0.127E-01  0.127E-01
  21.590  0.111E-01  0.111E-01
  21.605  0.974E-02  0.974E-02
  21.620  0.876E-02  0.876E-02
  21.635  0.805E-02  0.805E-02
  21.650  0.750E-02  0.750E-02
  21.665  0.702E-02  0.702E-02
  21.680  0.659E-02  0.659E-02
  21.695  0.624E-02  0.624E-02
  21.710  0.605E-02  0.605E-02
  21.725  0.603E-02  0.603E-02
  21.740  0.616E-02  0.616E-02
  21.755  0.638E-02  0.638E-02
  21.770  0.664E-02  0.664E-02
  21.785  0.687E-02  0.687E-02
  21.800  0.707E-02  0.707E-02
  21.815  0.720E-02  0.720E-02
  21.830  0.728E-02  0.728E-02
  21.845  0.732E-02  0.732E-02
  21.860  0.730E-02  0.730E-02
  21.875  0.724E-02  0.724E-02
  21.890  0.712E-02  0.712E-02
  21.905  0.694E-02  0.694E-02
  21.920  0.672E-02  0.672E-02
  21.935  0.644E-02  0.644E-02
  21.950  0.611E-02  0.611E-02
  21.965  0.573E-02  0.573E-02
  21.980  0.530E-02  0.530E-02
  21.995  0.483E-02  0.483E-02
  22.010  0.435E-02  0.435E-02
  22.025  0.388E-02  0.388E-02
  22.040  0.348E-02  0.348E-02
  22.055  0.317E-02  0.317E-02
  22.070  0.298E-02  0.298E-02
  22.085  0.291E-02  0.291E-02
  22.100  0.293E-02  0.293E-02
  22.115  0.298E-02  0.298E-02
  22.130  0.301E-02  0.301E-02
  22.145  0.296E-02  0.296E-02
  22.160  0.281E-02  0.281E-02
  22.175  0.258E-02  0.258E-02
  22.190  0.228E-02  0.228E-02
  22.205  0.199E-02  0.199E-02
  22.220  0.173E-02  0.173E-02
  22.235  0.156E-02  0.156E-02
  22.250  0.152E-02  0.152E-02
  22.265  0.161E-02  0.161E-02
  22.280  0.184E-02  0.184E-02
  22.295  0.216E-02  0.216E-02
  22.310  0.253E-02  0.253E-02
  22.325  0.287E-02  0.287E-02
  22.340  0.310E-02  0.310E-02
  22.355  0.317E-02  0.317E-02
  22.370  0.308E-02  0.308E-02
  22.385  0.287E-02  0.287E-02
  22.400  0.262E-02  0.262E-02
  22.415  0.237E-02  0.237E-02
  22.430  0.219E-02  0.219E-02
  22.445  0.207E-02  0.207E-02
  22.460  0.201E-02  0.201E-02
  22.475  0.200E-02  0.200E-02
  22.490  0.204E-02  0.204E-02
  22.505  0.214E-02  0.214E-02
  22.520  0.232E-02  0.232E-02
  22.535  0.258E-02  0.258E-02
  22.550  0.293E-02  0.293E-02
  22.565  0.333E-02  0.333E-02
  22.580  0.375E-02  0.375E-02
  22.595  0.416E-02  0.416E-02
  22.610  0.453E-02  0.453E-02
  22.625  0.486E-02  0.486E-02
  22.640  0.514E-02  0.514E-02
  22.655  0.534E-02  0.534E-02
  22.670  0.544E-02  0.544E-02
  22.685  0.537E-02  0.537E-02
  22.700  0.512E-02  0.512E-02
  22.715  0.473E-02  0.473E-02
  22.730  0.428E-02  0.428E-02
  22.745  0.390E-02  0.390E-02
  22.760  0.367E-02  0.367E-02
  22.775  0.362E-02  0.362E-02
  22.790  0.375E-02  0.375E-02
  22.805  0.401E-02  0.401E-02
  22.820  0.431E-02  0.431E-02
  22.835  0.462E-02  0.462E-02
  22.850  0.488E-02  0.488E-02
  22.865  0.506E-02  0.506E-02
  22.880  0.514E-02  0.514E-02
  22.895  0.512E-02  0.512E-02
  22.910  0.503E-02  0.503E-02
  22.925  0.497E-02  0.497E-02
  22.940  0.505E-02  0.505E-02
  22.955  0.542E-02  0.542E-02
  22.970  0.613E-02  0.613E-02
  22.985  0.713E-02  0.713E-02
  23.000  0.826E-02  0.826E-02
  23.015  0.929E-02  0.929E-02
  23.030  0.101E-01  0.101E-01
  23.045  0.105E-01  0.105E-01
  23.060  0.107E-01  0.107E-01
  23.075  0.109E-01  0.109E-01
  23.090  0.111E-01  0.111E-01
  23.105  0.115E-01  0.115E-01
  23.120  0.120E-01  0.120E-01
  23.135  0.123E-01  0.123E-01
  23.150  0.123E-01  0.123E-01
  23.165  0.120E-01  0.120E-01
  23.180  0.113E-01  0.113E-01
  23.195  0.103E-01  0.103E-01
  23.210  0.935E-02  0.935E-02
  23.225  0.855E-02  0.855E-02
  23.240  0.812E-02  0.812E-02
  23.255  0.814E-02  0.814E-02
  23.270  0.862E-02  0.862E-02
  23.285  0.941E-02  0.941E-02
  23.300  0.103E-01  0.103E-01
  23.315  0.111E-01  0.111E-01
  23.330  0.115E-01  0.115E-01
  23.345  0.114E-01  0.114E-01
  23.360  0.110E-01  0.110E-01
  23.375  0.101E-01  0.101E-01
  23.390  0.914E-02  0.914E-02
  23.405  0.810E-02  0.810E-02
  23.420  0.715E-02  0.715E-02
  23.435  0.642E-02  0.642E-02
  23.450  0.599E-02  0.599E-02
  23.465  0.592E-02  0.592E-02
  23.480  0.614E-02  0.614E-02
  23.495  0.655E-02  0.655E-02
  23.510  0.697E-02  0.697E-02
  23.525  0.727E-02  0.727E-02
  23.540  0.738E-02  0.738E-02
  23.555  0.730E-02  0.730E-02
  23.570  0.708E-02  0.708E-02
  23.585  0.681E-02  0.681E-02
  23.600  0.657E-02  0.657E-02
  23.615  0.645E-02  0.645E-02
  23.630  0.647E-02  0.647E-02
  23.645  0.665E-02  0.665E-02
  23.660  0.691E-02  0.691E-02
  23.675  0.715E-02  0.715E-02
  23.690  0.724E-02  0.724E-02
  23.705  0.712E-02  0.712E-02
  23.720  0.678E-02  0.678E-02
  23.735  0.630E-02  0.630E-02
  23.750  0.578E-02  0.578E-02
  23.765  0.533E-02  0.533E-02
  23.780  0.504E-02  0.504E-02
  23.795  0.495E-02  0.495E-02
  23.810  0.510E-02  0.510E-02
  23.825  0.547E-02  0.547E-02
  23.840  0.598E-02  0.598E-02
  23.855  0.651E-02  0.651E-02
  23.870  0.692E-02  0.692E-02
  23.885  0.711E-02  0.711E-02
  23.900  0.705E-02  0.705E-02
  23.915  0.684E-02  0.684E-02
  23.930  0.661E-02  0.661E-02
  23.945  0.650E-02  0.650E-02
  23.960  0.656E-02  0.656E-02
  23.975  0.677E-02  0.677E-02
  23.990  0.702E-02  0.702E-02
  24.005  0.719E-02  0.719E-02
  24.020  0.716E-02  0.716E-02
  24.035  0.688E-02  0.688E-02
  24.050  0.636E-02  0.636E-02
  24.065  0.567E-02  0.567E-02
  24.080  0.494E-02  0.494E-02
  24.095  0.431E-02  0.431E-02
  24.110  0.390E-02  0.390E-02
  24.125  0.378E-02  0.378E-02
  24.140  0.395E-02  0.395E-02
  24.155  0.432E-02  0.432E-02
  24.170  0.477E-02  0.477E-02
  24.185  0.518E-02  0.518E-02
  24.200  0.546E-02  0.546E-02
  24.215  0.556E-02  0.556E-02
  24.230  0.553E-02  0.553E-02
  24.245  0.546E-02  0.546E-02
  24.260  0.542E-02  0.542E-02
  24.275  0.549E-02  0.549E-02
  24.290  0.568E-02  0.568E-02
  24.305  0.595E-02  0.595E-02
  24.320  0.621E-02  0.621E-02
  24.335  0.634E-02  0.634E-02
  24.350  0.629E-02  0.629E-02
  24.365  0.604E-02  0.604E-02
  24.380  0.565E-02  0.565E-02
  24.395  0.526E-02  0.526E-02
  24.410  0.499E-02  0.499E-02
  24.425  0.494E-02  0.494E-02
  24.440  0.515E-02  0.515E-02
  24.455  0.553E-02  0.553E-02
  24.470  0.597E-02  0.597E-02
  24.485  0.632E-02  0.632E-02
  24.500  0.649E-02  0.649E-02
  24.515  0.646E-02  0.646E-02
  24.530  0.632E-02  0.632E-02
  24.545  0.619E-02  0.619E-02
  24.560  0.620E-02  0.620E-02
  24.575  0.639E-02  0.639E-02
  24.590  0.676E-02  0.676E-02
  24.605  0.725E-02  0.725E-02
  24.620  0.782E-02  0.782E-02
  24.635  0.840E-02  0.840E-02
  24.650  0.896E-02  0.896E-02
  24.665  0.945E-02  0.945E-02
  24.680  0.983E-02  0.983E-02
  24.695  0.101E-01  0.101E-01
  24.710  0.101E-01  0.101E-01
  24.725  0.993E-02  0.993E-02
  24.740  0.960E-02  0.960E-02
  24.755  0.917E-02  0.917E-02
  24.770  0.870E-02  0.870E-02
  24.785  0.824E-02  0.824E-02
  24.800  0.784E-02  0.784E-02
  24.815  0.749E-02  0.749E-02
  24.830  0.717E-02  0.717E-02
  24.845  0.687E-02  0.687E-02
  24.860  0.657E-02  0.657E-02
  24.875  0.627E-02  0.627E-02
  24.890  0.598E-02  0.598E-02
  24.905  0.574E-02  0.574E-02
  24.920  0.554E-02  0.554E-02
  24.935  0.540E-02  0.540E-02
  24.950  0.531E-02  0.531E-02
  24.965  0.526E-02  0.526E-02
  24.980  0.528E-02  0.528E-02
  24.995  0.538E-02  0.538E-02
  25.010  0.558E-02  0.558E-02
  25.025  0.587E-02  0.587E-02
  25.040  0.620E-02  0.620E-02
  25.055  0.651E-02  0.651E-02
  25.070  0.676E-02  0.676E-02
  25.085  0.693E-02  0.693E-02
  25.100  0.708E-02  0.708E-02
  25.115  0.726E-02  0.726E-02
  25.130  0.754E-02  0.754E-02
  25.145  0.795E-02  0.795E-02
  25.160  0.853E-02  0.853E-02
  25.175  0.923E-02  0.923E-02
  25.190  0.996E-02  0.996E-02
  25.205  0.106E-01  0.106E-01
  25.220  0.109E-01  0.109E-01
  25.235  0.109E-01  0.109E-01
  25.250  0.103E-01  0.103E-01
  25.265  0.944E-02  0.944E-02
  25.280  0.830E-02  0.830E-02
  25.295  0.713E-02  0.713E-02
  25.310  0.609E-02  0.609E-02
  25.325  0.528E-02  0.528E-02
  25.340  0.472E-02  0.472E-02
  25.355  0.440E-02  0.440E-02
  25.370  0.425E-02  0.425E-02
  25.385  0.421E-02  0.421E-02
  25.400  0.419E-02  0.419E-02
  25.415  0.417E-02  0.417E-02
  25.430  0.412E-02  0.412E-02
  25.445  0.408E-02  0.408E-02
  25.460  0.414E-02  0.414E-02
  25.475  0.440E-02  0.440E-02
  25.490  0.498E-02  0.498E-02
  25.505  0.594E-02  0.594E-02
  25.520  0.730E-02  0.730E-02
  25.535  0.893E-02  0.893E-02
  25.550  0.106E-01  0.106E-01
  25.565  0.122E-01  0.122E-01
  25.580  0.133E-01  0.133E-01
  25.595  0.138E-01  0.138E-01
  25.610  0.136E-01  0.136E-01
  25.625  0.130E-01  0.130E-01
  25.640  0.120E-01  0.120E-01
  25.655  0.108E-01  0.108E-01
  25.670  0.976E-02  0.976E-02
  25.685  0.894E-02  0.894E-02
  25.700  0.843E-02  0.843E-02
  25.715  0.825E-02  0.825E-02
  25.730  0.833E-02  0.833E-02
  25.745  0.856E-02  0.856E-02
  25.760  0.882E-02  0.882E-02
  25.775  0.900E-02  0.900E-02
  25.790  0.906E-02  0.906E-02
  25.805  0.897E-02  0.897E-02
  25.820  0.877E-02  0.877E-02
  25.835  0.846E-02  0.846E-02
  25.850  0.806E-02  0.806E-02
  25.865  0.756E-02  0.756E-02
  25.880  0.697E-02  0.697E-02
  25.895  0.630E-02  0.630E-02
  25.910  0.563E-02  0.563E-02
  25.925  0.502E-02  0.502E-02
  25.940  0.453E-02  0.453E-02
  25.955  0.416E-02  0.416E-02
  25.970  0.390E-02  0.390E-02
  25.985  0.370E-02  0.370E-02
  26.000  0.352E-02  0.352E-02
  26.015  0.334E-02  0.334E-02
  26.030  0.317E-02  0.317E-02
  26.045  0.304E-02  0.304E-02
  26.060  0.297E-02  0.297E-02
  26.075  0.294E-02  0.294E-02
  26.090  0.294E-02  0.294E-02
  26.105  0.293E-02  0.293E-02
  26.120  0.286E-02  0.286E-02
  26.135  0.273E-02  0.273E-02
  26.150  0.255E-02  0.255E-02
  26.165  0.237E-02  0.237E-02
  26.180  0.222E-02  0.222E-02
  26.195  0.214E-02  0.214E-02
  26.210  0.213E-02  0.213E-02
  26.225  0.217E-02  0.217E-02
  26.240  0.223E-02  0.223E-02
  26.255  0.228E-02  0.228E-02
  26.270  0.233E-02  0.233E-02
  26.285  0.239E-02  0.239E-02
  26.300  0.248E-02  0.248E-02
  26.315  0.262E-02  0.262E-02
  26.330  0.278E-02  0.278E-02
  26.345  0.294E-02  0.294E-02
  26.360  0.302E-02  0.302E-02
  26.375  0.298E-02  0.298E-02
  26.390  0.279E-02  0.279E-02
  26.405  0.247E-02  0.247E-02
  26.420  0.208E-02  0.208E-02
  26.435  0.171E-02  0.171E-02
  26.450  0.145E-02  0.145E-02
  26.465  0.135E-02  0.135E-02
  26.480  0.144E-02  0.144E-02
  26.495  0.167E-02  0.167E-02
  26.510  0.199E-02  0.199E-02
  26.525  0.232E-02  0.232E-02
  26.540  0.259E-02  0.259E-02
  26.555  0.274E-02  0.274E-02
  26.570  0.277E-02  0.277E-02
  26.585  0.269E-02  0.269E-02
  26.600  0.255E-02  0.255E-02
  26.615  0.240E-02  0.240E-02
  26.630  0.227E-02  0.227E-02
  26.645  0.219E-02  0.219E-02
  26.660  0.215E-02  0.215E-02
  26.675  0.214E-02  0.214E-02
  26.690  0.218E-02  0.218E-02
  26.705  0.228E-02  0.228E-02
  26.720  0.244E-02  0.244E-02
  26.735  0.266E-02  0.266E-02
  26.750  0.288E-02  0.288E-02
  26.765  0.309E-02  0.309E-02
  26.780  0.323E-02  0.323E-02
  26.795  0.331E-02  0.331E-02
  26.810  0.334E-02  0.334E-02
  26.825  0.334E-02  0.334E-02
  26.840  0.334E-02  0.334E-02
  26.855  0.333E-02  0.333E-02
  26.870  0.331E-02  0.331E-02
  26.885  0.326E-02  0.326E-02
  26.900  0.317E-02  0.317E-02
  26.915  0.304E-02  0.304E-02
  26.930  0.287E-02  0.287E-02
  26.945  0.268E-02  0.268E-02
  26.960  0.246E-02  0.246E-02
  26.975  0.224E-02  0.224E-02
  26.990  0.203E-02  0.203E-02
  27.005  0.186E-02  0.186E-02
  27.020  0.174E-02  0.174E-02
  27.035  0.168E-02  0.168E-02
  27.050  0.165E-02  0.165E-02
  27.065  0.166E-02  0.166E-02
  27.080  0.167E-02  0.167E-02
  27.095  0.167E-02  0.167E-02
  27.110  0.166E-02  0.166E-02
  27.125  0.162E-02  0.162E-02
  27.140  0.157E-02  0.157E-02
  27.155  0.152E-02  0.152E-02
  27.170  0.145E-02  0.145E-02
  27.185  0.139E-02  0.139E-02
  27.200  0.132E-02  0.132E-02
  27.215  0.127E-02  0.127E-02
  27.230  0.122E-02  0.122E-02
  27.245  0.121E-02  0.121E-02
  27.260  0.121E-02  0.121E-02
  27.275  0.122E-02  0.122E-02
  27.290  0.124E-02  0.124E-02
  27.305  0.125E-02  0.125E-02
  27.320  0.126E-02  0.126E-02
  27.335  0.127E-02  0.127E-02
  27.350  0.130E-02  0.130E-02
  27.365  0.137E-02  0.137E-02
  27.380  0.146E-02  0.146E-02
  27.395  0.156E-02  0.156E-02
  27.410  0.163E-02  0.163E-02
  27.425  0.166E-02  0.166E-02
  27.440  0.165E-02  0.165E-02
  27.455  0.160E-02  0.160E-02
  27.470  0.154E-02  0.154E-02
  27.485  0.151E-02  0.151E-02
  27.500  0.151E-02  0.151E-02
  27.515  0.154E-02  0.154E-02
  27.530  0.160E-02  0.160E-02
  27.545  0.166E-02  0.166E-02
  27.560  0.168E-02  0.168E-02
  27.575  0.165E-02  0.165E-02
  27.590  0.156E-02  0.156E-02
  27.605  0.142E-02  0.142E-02
  27.620  0.126E-02  0.126E-02
  27.635  0.111E-02  0.111E-02
  27.650  0.100E-02  0.100E-02
  27.665  0.936E-03  0.936E-03
  27.680  0.916E-03  0.916E-03
  27.695  0.925E-03  0.925E-03
  27.710  0.945E-03  0.945E-03
  27.725  0.959E-03  0.959E-03
  27.740  0.956E-03  0.956E-03
  27.755  0.938E-03  0.938E-03
  27.770  0.910E-03  0.910E-03
  27.785  0.883E-03  0.883E-03
  27.800  0.864E-03  0.864E-03
  27.815  0.853E-03  0.853E-03
  27.830  0.847E-03  0.847E-03
  27.845  0.837E-03  0.837E-03
  27.860  0.818E-03  0.818E-03
  27.875  0.794E-03  0.794E-03
  27.890  0.772E-03  0.772E-03
  27.905  0.762E-03  0.762E-03
  27.920  0.769E-03  0.769E-03
  27.935  0.792E-03  0.792E-03
  27.950  0.817E-03  0.817E-03
  27.965  0.829E-03  0.829E-03
  27.980  0.815E-03  0.815E-03
  27.995  0.770E-03  0.770E-03
  28.010  0.703E-03  0.703E-03
  28.025  0.632E-03  0.632E-03
  28.040  0.574E-03  0.574E-03
  28.055  0.546E-03  0.546E-03
  28.070  0.551E-03  0.551E-03
  28.085  0.580E-03  0.580E-03
  28.100  0.617E-03  0.617E-03
  28.115  0.643E-03  0.643E-03
  28.130  0.642E-03  0.642E-03
  28.145  0.612E-03  0.612E-03
  28.160  0.557E-03  0.557E-03
  28.175  0.491E-03  0.491E-03
  28.190  0.429E-03  0.429E-03
  28.205  0.380E-03  0.380E-03
  28.220  0.348E-03  0.348E-03
  28.235  0.333E-03  0.333E-03
  28.250  0.331E-03  0.331E-03
  28.265  0.339E-03  0.339E-03
  28.280  0.358E-03  0.358E-03
  28.295  0.392E-03  0.392E-03
  28.310  0.444E-03  0.444E-03
  28.325  0.513E-03  0.513E-03
  28.340  0.593E-03  0.593E-03
  28.355  0.671E-03  0.671E-03
  28.370  0.733E-03  0.733E-03
  28.385  0.767E-03  0.767E-03
  28.400  0.769E-03  0.769E-03
  28.415  0.743E-03  0.743E-03
  28.430  0.700E-03  0.700E-03
  28.445  0.650E-03  0.650E-03
  28.460  0.603E-03  0.603E-03
  28.475  0.566E-03  0.566E-03
  28.490  0.539E-03  0.539E-03
  28.505  0.523E-03  0.523E-03
  28.520  0.513E-03  0.513E-03
  28.535  0.504E-03  0.504E-03
  28.550  0.495E-03  0.495E-03
  28.565  0.484E-03  0.484E-03
  28.580  0.475E-03  0.475E-03
  28.595  0.470E-03  0.470E-03
  28.610  0.472E-03  0.472E-03
  28.625  0.479E-03  0.479E-03
  28.640  0.491E-03  0.491E-03
  28.655  0.508E-03  0.508E-03
  28.670  0.530E-03  0.530E-03
  28.685  0.562E-03  0.562E-03
  28.700  0.604E-03  0.604E-03
  28.715  0.651E-03  0.651E-03
  28.730  0.694E-03  0.694E-03
  28.745  0.717E-03  0.717E-03
  28.760  0.710E-03  0.710E-03
  28.775  0.673E-03  0.673E-03
  28.790  0.614E-03  0.614E-03
  28.805  0.550E-03  0.550E-03
  28.820  0.497E-03  0.497E-03
  28.835  0.467E-03  0.467E-03
  28.850  0.463E-03  0.463E-03
  28.865  0.483E-03  0.483E-03
  28.880  0.520E-03  0.520E-03
  28.895  0.569E-03  0.569E-03
  28.910  0.622E-03  0.622E-03
  28.925  0.675E-03  0.675E-03
  28.940  0.722E-03  0.722E-03
  28.955  0.761E-03  0.761E-03
  28.970  0.791E-03  0.791E-03
  28.985  0.813E-03  0.813E-03
  29.000  0.826E-03  0.826E-03
  29.015  0.833E-03  0.833E-03
  29.030  0.836E-03  0.836E-03
  29.045  0.834E-03  0.834E-03
  29.060  0.827E-03  0.827E-03
  29.075  0.815E-03  0.815E-03
  29.090  0.795E-03  0.795E-03
  29.105  0.766E-03  0.766E-03
  29.120  0.729E-03  0.729E-03
  29.135  0.686E-03  0.686E-03
  29.150  0.643E-03  0.643E-03
  29.165  0.604E-03  0.604E-03
  29.180  0.572E-03  0.572E-03
  29.195  0.551E-03  0.551E-03
  29.210  0.538E-03  0.538E-03
  29.225  0.534E-03  0.534E-03
  29.240  0.533E-03  0.533E-03
  29.255  0.531E-03  0.531E-03
  29.270  0.523E-03  0.523E-03
  29.285  0.502E-03  0.502E-03
  29.300  0.470E-03  0.470E-03
  29.315  0.427E-03  0.427E-03
  29.330  0.380E-03  0.380E-03
  29.345  0.338E-03  0.338E-03
  29.360  0.310E-03  0.310E-03
  29.375  0.300E-03  0.300E-03
  29.390  0.309E-03  0.309E-03
  29.405  0.332E-03  0.332E-03
  29.420  0.361E-03  0.361E-03
  29.435  0.385E-03  0.385E-03
  29.450  0.397E-03  0.397E-03
  29.465  0.395E-03  0.395E-03
  29.480  0.381E-03  0.381E-03
  29.495  0.364E-03  0.364E-03
  29.510  0.350E-03  0.350E-03
  29.525  0.341E-03  0.341E-03
  29.540  0.338E-03  0.338E-03
  29.555  0.338E-03  0.338E-03
  29.570  0.339E-03  0.339E-03
  29.585  0.339E-03  0.339E-03
  29.600  0.338E-03  0.338E-03
  29.615  0.337E-03  0.337E-03
  29.630  0.339E-03  0.339E-03
  29.645  0.347E-03  0.347E-03
  29.660  0.366E-03  0.366E-03
  29.675  0.398E-03  0.398E-03
  29.690  0.444E-03  0.444E-03
  29.705  0.498E-03  0.498E-03
  29.720  0.556E-03  0.556E-03
  29.735  0.614E-03  0.614E-03
  29.750  0.668E-03  0.668E-03
  29.765  0.717E-03  0.717E-03
  29.780  0.760E-03  0.760E-03
  29.795  0.790E-03  0.790E-03
  29.810  0.806E-03  0.806E-03
  29.825  0.806E-03  0.806E-03
  29.840  0.796E-03  0.796E-03
  29.855  0.789E-03  0.789E-03
  29.870  0.797E-03  0.797E-03
  29.885  0.831E-03  0.831E-03
  29.900  0.896E-03  0.896E-03
  29.915  0.987E-03  0.987E-03
  29.930  0.109E-02  0.109E-02
  29.945  0.119E-02  0.119E-02
  29.960  0.127E-02  0.127E-02
  29.975  0.130E-02  0.130E-02
  29.990  0.130E-02  0.130E-02
  30.005  0.125E-02  0.125E-02
  30.020  0.117E-02  0.117E-02
  30.035  0.109E-02  0.109E-02
  30.050  0.101E-02  0.101E-02
  30.065  0.951E-03  0.951E-03
  30.080  0.913E-03  0.913E-03
  30.095  0.885E-03  0.885E-03
  30.110  0.856E-03  0.856E-03
  30.125  0.818E-03  0.818E-03
  30.140  0.770E-03  0.770E-03
  30.155  0.718E-03  0.718E-03
  30.170  0.668E-03  0.668E-03
  30.185  0.624E-03  0.624E-03
  30.200  0.587E-03  0.587E-03
  30.215  0.557E-03  0.557E-03
  30.230  0.536E-03  0.536E-03
  30.245  0.525E-03  0.525E-03
  30.260  0.526E-03  0.526E-03
  30.275  0.534E-03  0.534E-03
  30.290  0.542E-03  0.542E-03
  30.305  0.545E-03  0.545E-03
  30.320  0.542E-03  0.542E-03
  30.335  0.539E-03  0.539E-03
  30.350  0.542E-03  0.542E-03
  30.365  0.555E-03  0.555E-03
  30.380  0.578E-03  0.578E-03
  30.395  0.603E-03  0.603E-03
  30.410  0.621E-03  0.621E-03
  30.425  0.630E-03  0.630E-03
  30.440  0.630E-03  0.630E-03
  30.455  0.626E-03  0.626E-03
  30.470  0.623E-03  0.623E-03
  30.485  0.624E-03  0.624E-03
  30.500  0.625E-03  0.625E-03
  30.515  0.623E-03  0.623E-03
  30.530  0.616E-03  0.616E-03
  30.545  0.603E-03  0.603E-03
  30.560  0.583E-03  0.583E-03
  30.575  0.556E-03  0.556E-03
  30.590  0.519E-03  0.519E-03
  30.605  0.475E-03  0.475E-03
  30.620  0.429E-03  0.429E-03
  30.635  0.389E-03  0.389E-03
  30.650  0.366E-03  0.366E-03
  30.665  0.363E-03  0.363E-03
  30.680  0.380E-03  0.380E-03
  30.695  0.408E-03  0.408E-03
  30.710  0.442E-03  0.442E-03
  30.725  0.477E-03  0.477E-03
  30.740  0.513E-03  0.513E-03
  30.755  0.552E-03  0.552E-03
  30.770  0.591E-03  0.591E-03
  30.785  0.627E-03  0.627E-03
  30.800  0.654E-03  0.654E-03
  30.815  0.671E-03  0.671E-03
  30.830  0.681E-03  0.681E-03
  30.845  0.696E-03  0.696E-03
  30.860  0.727E-03  0.727E-03
  30.875  0.778E-03  0.778E-03
  30.890  0.846E-03  0.846E-03
  30.905  0.924E-03  0.924E-03
  30.920  0.999E-03  0.999E-03
  30.935  0.106E-02  0.106E-02
  30.950  0.112E-02  0.112E-02
  30.965  0.118E-02  0.118E-02
  30.980  0.124E-02  0.124E-02
  30.995  0.131E-02  0.131E-02
  31.010  0.138E-02  0.138E-02
  31.025  0.145E-02  0.145E-02
  31.040  0.149E-02  0.149E-02
  31.055  0.151E-02  0.151E-02
  31.070  0.150E-02  0.150E-02
  31.085  0.148E-02  0.148E-02
  31.100  0.145E-02  0.145E-02
  31.115  0.143E-02  0.143E-02
  31.130  0.142E-02  0.142E-02
  31.145  0.141E-02  0.141E-02
  31.160  0.140E-02  0.140E-02
  31.175  0.139E-02  0.139E-02
  31.190  0.137E-02  0.137E-02
  31.205  0.135E-02  0.135E-02
  31.220  0.133E-02  0.133E-02
  31.235  0.130E-02  0.130E-02
  31.250  0.126E-02  0.126E-02
  31.265  0.119E-02  0.119E-02
  31.280  0.110E-02  0.110E-02
  31.295  0.982E-03  0.982E-03
  31.310  0.859E-03  0.859E-03
  31.325  0.737E-03  0.737E-03
  31.340  0.626E-03  0.626E-03
  31.355  0.532E-03  0.532E-03
  31.370  0.456E-03  0.456E-03
  31.385  0.398E-03  0.398E-03
  31.400  0.357E-03  0.357E-03
  31.415  0.332E-03  0.332E-03
  31.430  0.319E-03  0.319E-03
  31.445  0.317E-03  0.317E-03
  31.460  0.324E-03  0.324E-03
  31.475  0.340E-03  0.340E-03
  31.490  0.366E-03  0.366E-03
  31.505  0.396E-03  0.396E-03
  31.520  0.426E-03  0.426E-03
  31.535  0.445E-03  0.445E-03
  31.550  0.445E-03  0.445E-03
  31.565  0.422E-03  0.422E-03
  31.580  0.377E-03  0.377E-03
  31.595  0.319E-03  0.319E-03
  31.610  0.260E-03  0.260E-03
  31.625  0.214E-03  0.214E-03
  31.640  0.192E-03  0.192E-03
  31.655  0.200E-03  0.200E-03
  31.670  0.239E-03  0.239E-03
  31.685  0.304E-03  0.304E-03
  31.700  0.384E-03  0.384E-03
  31.715  0.465E-03  0.465E-03
  31.730  0.530E-03  0.530E-03
  31.745  0.568E-03  0.568E-03
  31.760  0.576E-03  0.576E-03
  31.775  0.557E-03  0.557E-03
  31.790  0.525E-03  0.525E-03
  31.805  0.498E-03  0.498E-03
  31.820  0.486E-03  0.486E-03
  31.835  0.497E-03  0.497E-03
  31.850  0.524E-03  0.524E-03
  31.865  0.556E-03  0.556E-03
  31.880  0.579E-03  0.579E-03
  31.895  0.581E-03  0.581E-03
  31.910  0.562E-03  0.562E-03
  31.925  0.524E-03  0.524E-03
  31.940  0.478E-03  0.478E-03
  31.955  0.433E-03  0.433E-03
  31.970  0.394E-03  0.394E-03
  31.985  0.366E-03  0.366E-03
  32.000  0.351E-03  0.351E-03
  32.015  0.351E-03  0.351E-03
  32.030  0.368E-03  0.368E-03
  32.045  0.406E-03  0.406E-03
  32.060  0.468E-03  0.468E-03
  32.075  0.554E-03  0.554E-03
  32.090  0.658E-03  0.658E-03
  32.105  0.769E-03  0.769E-03
  32.120  0.870E-03  0.870E-03
  32.135  0.944E-03  0.944E-03
  32.150  0.976E-03  0.976E-03
  32.165  0.964E-03  0.964E-03
  32.180  0.916E-03  0.916E-03
  32.195  0.849E-03  0.849E-03
  32.210  0.784E-03  0.784E-03
  32.225  0.739E-03  0.739E-03
  32.240  0.726E-03  0.726E-03
  32.255  0.747E-03  0.747E-03
  32.270  0.797E-03  0.797E-03
  32.285  0.864E-03  0.864E-03
  32.300  0.938E-03  0.938E-03
  32.315  0.101E-02  0.101E-02
  32.330  0.108E-02  0.108E-02
  32.345  0.114E-02  0.114E-02
  32.360  0.120E-02  0.120E-02
  32.375  0.124E-02  0.124E-02
  32.390  0.125E-02  0.125E-02
  32.405  0.122E-02  0.122E-02
  32.420  0.115E-02  0.115E-02
  32.435  0.103E-02  0.103E-02
  32.450  0.884E-03  0.884E-03
  32.465  0.723E-03  0.723E-03
  32.480  0.575E-03  0.575E-03
  32.495  0.460E-03  0.460E-03
  32.510  0.386E-03  0.386E-03
  32.525  0.352E-03  0.352E-03
  32.540  0.347E-03  0.347E-03
  32.555  0.357E-03  0.357E-03
  32.570  0.366E-03  0.366E-03
  32.585  0.366E-03  0.366E-03
  32.600  0.351E-03  0.351E-03
  32.615  0.322E-03  0.322E-03
  32.630  0.283E-03  0.283E-03
  32.645  0.238E-03  0.238E-03
  32.660  0.192E-03  0.192E-03
  32.675  0.152E-03  0.152E-03
  32.690  0.120E-03  0.120E-03
  32.705  0.998E-04  0.998E-04
  32.720  0.919E-04  0.919E-04
  32.735  0.970E-04  0.970E-04
  32.750  0.114E-03  0.114E-03
  32.765  0.140E-03  0.140E-03
  32.780  0.171E-03  0.171E-03
  32.795  0.199E-03  0.199E-03
  32.810  0.221E-03  0.221E-03
  32.825  0.231E-03  0.231E-03
  32.840  0.233E-03  0.233E-03
  32.855  0.230E-03  0.230E-03
  32.870  0.229E-03  0.229E-03
  32.885  0.236E-03  0.236E-03
  32.900  0.252E-03  0.252E-03
  32.915  0.274E-03  0.274E-03
  32.930  0.294E-03  0.294E-03
  32.945  0.308E-03  0.308E-03
  32.960  0.310E-03  0.310E-03
  32.975  0.302E-03  0.302E-03
  32.990  0.286E-03  0.286E-03
  33.005  0.267E-03  0.267E-03
  33.020  0.247E-03  0.247E-03
  33.035  0.227E-03  0.227E-03
  33.050  0.209E-03  0.209E-03
  33.065  0.191E-03  0.191E-03
  33.080  0.176E-03  0.176E-03
  33.095  0.166E-03  0.166E-03
  33.110  0.161E-03  0.161E-03
  33.125  0.162E-03  0.162E-03
  33.140  0.166E-03  0.166E-03
  33.155  0.170E-03  0.170E-03
  33.170  0.169E-03  0.169E-03
  33.185  0.165E-03  0.165E-03
  33.200  0.161E-03  0.161E-03
  33.215  0.165E-03  0.165E-03
  33.230  0.184E-03  0.184E-03
  33.245  0.221E-03  0.221E-03
  33.260  0.275E-03  0.275E-03
  33.275  0.335E-03  0.335E-03
  33.290  0.388E-03  0.388E-03
  33.305  0.420E-03  0.420E-03
  33.320  0.422E-03  0.422E-03
  33.335  0.396E-03  0.396E-03
  33.350  0.350E-03  0.350E-03
  33.365  0.296E-03  0.296E-03
  33.380  0.247E-03  0.247E-03
  33.395  0.209E-03  0.209E-03
  33.410  0.186E-03  0.186E-03
  33.425  0.178E-03  0.178E-03
  33.440  0.182E-03  0.182E-03
  33.455  0.196E-03  0.196E-03
  33.470  0.217E-03  0.217E-03
  33.485  0.244E-03  0.244E-03
  33.500  0.275E-03  0.275E-03
  33.515  0.309E-03  0.309E-03
  33.530  0.347E-03  0.347E-03
  33.545  0.388E-03  0.388E-03
  33.560  0.432E-03  0.432E-03
  33.575  0.476E-03  0.476E-03
  33.590  0.515E-03  0.515E-03
  33.605  0.543E-03  0.543E-03
  33.620  0.556E-03  0.556E-03
  33.635  0.551E-03  0.551E-03
  33.650  0.530E-03  0.530E-03
  33.665  0.497E-03  0.497E-03
  33.680  0.460E-03  0.460E-03
  33.695  0.426E-03  0.426E-03
  33.710  0.399E-03  0.399E-03
  33.725  0.383E-03  0.383E-03
  33.740  0.378E-03  0.378E-03
  33.755  0.382E-03  0.382E-03
  33.770  0.395E-03  0.395E-03
  33.785  0.418E-03  0.418E-03
  33.800  0.451E-03  0.451E-03
  33.815  0.490E-03  0.490E-03
  33.830  0.532E-03  0.532E-03
  33.845  0.568E-03  0.568E-03
  33.860  0.591E-03  0.591E-03
  33.875  0.595E-03  0.595E-03
  33.890  0.580E-03  0.580E-03
  33.905  0.553E-03  0.553E-03
  33.920  0.522E-03  0.522E-03
  33.935  0.494E-03  0.494E-03
  33.950  0.471E-03  0.471E-03
  33.965  0.449E-03  0.449E-03
  33.980  0.423E-03  0.423E-03
  33.995  0.389E-03  0.389E-03
  34.010  0.348E-03  0.348E-03
  34.025  0.304E-03  0.304E-03
  34.040  0.266E-03  0.266E-03
  34.055  0.238E-03  0.238E-03
  34.070  0.224E-03  0.224E-03
  34.085  0.223E-03  0.223E-03
  34.100  0.234E-03  0.234E-03
  34.115  0.255E-03  0.255E-03
  34.130  0.285E-03  0.285E-03
  34.145  0.319E-03  0.319E-03
  34.160  0.351E-03  0.351E-03
  34.175  0.376E-03  0.376E-03
  34.190  0.387E-03  0.387E-03
  34.205  0.382E-03  0.382E-03
  34.220  0.366E-03  0.366E-03
  34.235  0.342E-03  0.342E-03
  34.250  0.316E-03  0.316E-03
  34.265  0.292E-03  0.292E-03
  34.280  0.270E-03  0.270E-03
  34.295  0.251E-03  0.251E-03
  34.310  0.235E-03  0.235E-03
  34.325  0.219E-03  0.219E-03
  34.340  0.205E-03  0.205E-03
  34.355  0.191E-03  0.191E-03
  34.370  0.178E-03  0.178E-03
  34.385  0.169E-03  0.169E-03
  34.400  0.167E-03  0.167E-03
  34.415  0.173E-03  0.173E-03
  34.430  0.188E-03  0.188E-03
  34.445  0.212E-03  0.212E-03
  34.460  0.239E-03  0.239E-03
  34.475  0.266E-03  0.266E-03
  34.490  0.291E-03  0.291E-03
  34.505  0.311E-03  0.311E-03
  34.520  0.326E-03  0.326E-03
  34.535  0.333E-03  0.333E-03
  34.550  0.331E-03  0.331E-03
  34.565  0.319E-03  0.319E-03
  34.580  0.299E-03  0.299E-03
  34.595  0.276E-03  0.276E-03
  34.610  0.260E-03  0.260E-03
  34.625  0.259E-03  0.259E-03
  34.640  0.279E-03  0.279E-03
  34.655  0.317E-03  0.317E-03
  34.670  0.367E-03  0.367E-03
  34.685  0.417E-03  0.417E-03
  34.700  0.454E-03  0.454E-03
  34.715  0.470E-03  0.470E-03
  34.730  0.463E-03  0.463E-03
  34.745  0.439E-03  0.439E-03
  34.760  0.407E-03  0.407E-03
  34.775  0.378E-03  0.378E-03
  34.790  0.358E-03  0.358E-03
  34.805  0.351E-03  0.351E-03
  34.820  0.356E-03  0.356E-03
  34.835  0.368E-03  0.368E-03
  34.850  0.384E-03  0.384E-03
  34.865  0.402E-03  0.402E-03
  34.880  0.419E-03  0.419E-03
  34.895  0.437E-03  0.437E-03
  34.910  0.457E-03  0.457E-03
  34.925  0.477E-03  0.477E-03
  34.940  0.493E-03  0.493E-03
  34.955  0.500E-03  0.500E-03
  34.970  0.491E-03  0.491E-03
  34.985  0.468E-03  0.468E-03
  35.000  0.434E-03  0.434E-03
  35.015  0.397E-03  0.397E-03
  35.030  0.367E-03  0.367E-03
  35.045  0.350E-03  0.350E-03
  35.060  0.347E-03  0.347E-03
  35.075  0.354E-03  0.354E-03
  35.090  0.365E-03  0.365E-03
  35.105  0.372E-03  0.372E-03
  35.120  0.371E-03  0.371E-03
  35.135  0.361E-03  0.361E-03
  35.150  0.341E-03  0.341E-03
  35.165  0.317E-03  0.317E-03
  35.180  0.291E-03  0.291E-03
  35.195  0.266E-03  0.266E-03
  35.210  0.244E-03  0.244E-03
  35.225  0.224E-03  0.224E-03
  35.240  0.208E-03  0.208E-03
  35.255  0.196E-03  0.196E-03
  35.270  0.191E-03  0.191E-03
  35.285  0.194E-03  0.194E-03
  35.300  0.210E-03  0.210E-03
  35.315  0.240E-03  0.240E-03
  35.330  0.282E-03  0.282E-03
  35.345  0.332E-03  0.332E-03
  35.360  0.382E-03  0.382E-03
  35.375  0.423E-03  0.423E-03
  35.390  0.448E-03  0.448E-03
  35.405  0.455E-03  0.455E-03
  35.420  0.443E-03  0.443E-03
  35.435  0.418E-03  0.418E-03
  35.450  0.385E-03  0.385E-03
  35.465  0.352E-03  0.352E-03
  35.480  0.323E-03  0.323E-03
  35.495  0.301E-03  0.301E-03
  35.510  0.288E-03  0.288E-03
  35.525  0.283E-03  0.283E-03
  35.540  0.286E-03  0.286E-03
  35.555  0.294E-03  0.294E-03
  35.570  0.303E-03  0.303E-03
  35.585  0.309E-03  0.309E-03
  35.600  0.309E-03  0.309E-03
  35.615  0.299E-03  0.299E-03
  35.630  0.280E-03  0.280E-03
  35.645  0.252E-03  0.252E-03
  35.660  0.221E-03  0.221E-03
  35.675  0.190E-03  0.190E-03
  35.690  0.165E-03  0.165E-03
  35.705  0.149E-03  0.149E-03
  35.720  0.142E-03  0.142E-03
  35.735  0.144E-03  0.144E-03
  35.750  0.152E-03  0.152E-03
  35.765  0.164E-03  0.164E-03
  35.780  0.181E-03  0.181E-03
  35.795  0.201E-03  0.201E-03
  35.810  0.225E-03  0.225E-03
  35.825  0.248E-03  0.248E-03
  35.840  0.266E-03  0.266E-03
  35.855  0.275E-03  0.275E-03
  35.870  0.272E-03  0.272E-03
  35.885  0.259E-03  0.259E-03
  35.900  0.238E-03  0.238E-03
  35.915  0.217E-03  0.217E-03
  35.930  0.197E-03  0.197E-03
  35.945  0.182E-03  0.182E-03
  35.960  0.168E-03  0.168E-03
  35.975  0.156E-03  0.156E-03
  35.990  0.143E-03  0.143E-03
  36.005  0.131E-03  0.131E-03
  36.020  0.120E-03  0.120E-03
  36.035  0.112E-03  0.112E-03
  36.050  0.108E-03  0.108E-03
  36.065  0.108E-03  0.108E-03
  36.080  0.113E-03  0.113E-03
  36.095  0.122E-03  0.122E-03
  36.110  0.135E-03  0.135E-03
  36.125  0.149E-03  0.149E-03
  36.140  0.163E-03  0.163E-03
  36.155  0.172E-03  0.172E-03
  36.170  0.176E-03  0.176E-03
  36.185  0.173E-03  0.173E-03
  36.200  0.165E-03  0.165E-03
  36.215  0.155E-03  0.155E-03
  36.230  0.149E-03  0.149E-03
  36.245  0.151E-03  0.151E-03
  36.260  0.165E-03  0.165E-03
  36.275  0.188E-03  0.188E-03
  36.290  0.216E-03  0.216E-03
  36.305  0.239E-03  0.239E-03
  36.320  0.249E-03  0.249E-03
  36.335  0.241E-03  0.241E-03
  36.350  0.216E-03  0.216E-03
  36.365  0.179E-03  0.179E-03
  36.380  0.139E-03  0.139E-03
  36.395  0.103E-03  0.103E-03
  36.410  0.777E-04  0.777E-04
  36.425  0.638E-04  0.638E-04
  36.440  0.605E-04  0.605E-04
  36.455  0.650E-04  0.650E-04
  36.470  0.736E-04  0.736E-04
  36.485  0.829E-04  0.829E-04
  36.500  0.901E-04  0.901E-04
  36.515  0.938E-04  0.938E-04
  36.530  0.938E-04  0.938E-04
  36.545  0.907E-04  0.907E-04
  36.560  0.856E-04  0.856E-04
  36.575  0.800E-04  0.800E-04
  36.590  0.753E-04  0.753E-04
  36.605  0.732E-04  0.732E-04
  36.620  0.750E-04  0.750E-04
  36.635  0.808E-04  0.808E-04
  36.650  0.898E-04  0.898E-04
  36.665  0.996E-04  0.996E-04
  36.680  0.108E-03  0.108E-03
  36.695  0.113E-03  0.113E-03
  36.710  0.116E-03  0.116E-03
  36.725  0.116E-03  0.116E-03
  36.740  0.117E-03  0.117E-03
  36.755  0.120E-03  0.120E-03
  36.770  0.126E-03  0.126E-03
  36.785  0.134E-03  0.134E-03
  36.800  0.142E-03  0.142E-03
  36.815  0.147E-03  0.147E-03
  36.830  0.148E-03  0.148E-03
  36.845  0.145E-03  0.145E-03
  36.860  0.137E-03  0.137E-03
  36.875  0.126E-03  0.126E-03
  36.890  0.114E-03  0.114E-03
  36.905  0.102E-03  0.102E-03
  36.920  0.906E-04  0.906E-04
  36.935  0.812E-04  0.812E-04
  36.950  0.738E-04  0.738E-04
  36.965  0.684E-04  0.684E-04
  36.980  0.650E-04  0.650E-04
  36.995  0.631E-04  0.631E-04
  37.010  0.625E-04  0.625E-04
  37.025  0.625E-04  0.625E-04
  37.040  0.621E-04  0.621E-04
  37.055  0.608E-04  0.608E-04
  37.070  0.584E-04  0.584E-04
  37.085  0.553E-04  0.553E-04
  37.100  0.524E-04  0.524E-04
  37.115  0.505E-04  0.505E-04
  37.130  0.499E-04  0.499E-04
  37.145  0.508E-04  0.508E-04
  37.160  0.524E-04  0.524E-04
  37.175  0.542E-04  0.542E-04
  37.190  0.559E-04  0.559E-04
  37.205  0.577E-04  0.577E-04
  37.220  0.607E-04  0.607E-04
  37.235  0.659E-04  0.659E-04
  37.250  0.739E-04  0.739E-04
  37.265  0.837E-04  0.837E-04
  37.280  0.930E-04  0.930E-04
  37.295  0.988E-04  0.988E-04
  37.310  0.988E-04  0.988E-04
  37.325  0.928E-04  0.928E-04
  37.340  0.826E-04  0.826E-04
  37.355  0.712E-04  0.712E-04
  37.370  0.619E-04  0.619E-04
  37.385  0.564E-04  0.564E-04
  37.400  0.546E-04  0.546E-04
  37.415  0.549E-04  0.549E-04
  37.430  0.552E-04  0.552E-04
  37.445  0.537E-04  0.537E-04
  37.460  0.502E-04  0.502E-04
  37.475  0.454E-04  0.454E-04
  37.490  0.413E-04  0.413E-04
  37.505  0.398E-04  0.398E-04
  37.520  0.419E-04  0.419E-04
  37.535  0.474E-04  0.474E-04
  37.550  0.549E-04  0.549E-04
  37.565  0.622E-04  0.622E-04
  37.580  0.674E-04  0.674E-04
  37.595  0.689E-04  0.689E-04
  37.610  0.668E-04  0.668E-04
  37.625  0.617E-04  0.617E-04
  37.640  0.552E-04  0.552E-04
  37.655  0.493E-04  0.493E-04
  37.670  0.459E-04  0.459E-04
  37.685  0.467E-04  0.467E-04
  37.700  0.527E-04  0.527E-04
  37.715  0.641E-04  0.641E-04
  37.730  0.795E-04  0.795E-04
  37.745  0.963E-04  0.963E-04
  37.760  0.111E-03  0.111E-03
  37.775  0.120E-03  0.120E-03
  37.790  0.121E-03  0.121E-03
  37.805  0.113E-03  0.113E-03
  37.820  0.982E-04  0.982E-04
  37.835  0.791E-04  0.791E-04
  37.850  0.594E-04  0.594E-04
  37.865  0.420E-04  0.420E-04
  37.880  0.285E-04  0.285E-04
  37.895  0.196E-04  0.196E-04
  37.910  0.150E-04  0.150E-04
  37.925  0.141E-04  0.141E-04
  37.940  0.168E-04  0.168E-04
  37.955  0.229E-04  0.229E-04
  37.970  0.329E-04  0.329E-04
  37.985  0.465E-04  0.465E-04
  38.000  0.629E-04  0.629E-04
  38.015  0.801E-04  0.801E-04
  38.030  0.956E-04  0.956E-04
  38.045  0.107E-03  0.107E-03
  38.060  0.112E-03  0.112E-03
  38.075  0.110E-03  0.110E-03
  38.090  0.104E-03  0.104E-03
  38.105  0.946E-04  0.946E-04
  38.120  0.857E-04  0.857E-04
  38.135  0.787E-04  0.787E-04
  38.150  0.744E-04  0.744E-04
  38.165  0.724E-04  0.724E-04
  38.180  0.715E-04  0.715E-04
  38.195  0.703E-04  0.703E-04
  38.210  0.676E-04  0.676E-04
  38.225  0.632E-04  0.632E-04
  38.240  0.575E-04  0.575E-04
  38.255  0.520E-04  0.520E-04
  38.270  0.480E-04  0.480E-04
  38.285  0.466E-04  0.466E-04
  38.300  0.478E-04  0.478E-04
  38.315  0.505E-04  0.505E-04
  38.330  0.532E-04  0.532E-04
  38.345  0.542E-04  0.542E-04
  38.360  0.528E-04  0.528E-04
  38.375  0.496E-04  0.496E-04
  38.390  0.457E-04  0.457E-04
  38.405  0.427E-04  0.427E-04
  38.420  0.415E-04  0.415E-04
  38.435  0.422E-04  0.422E-04
  38.450  0.436E-04  0.436E-04
  38.465  0.444E-04  0.444E-04
  38.480  0.435E-04  0.435E-04
  38.495  0.408E-04  0.408E-04
  38.510  0.368E-04  0.368E-04
  38.525  0.334E-04  0.334E-04
  38.540  0.323E-04  0.323E-04
  38.555  0.352E-04  0.352E-04
  38.570  0.428E-04  0.428E-04
  38.585  0.540E-04  0.540E-04
  38.600  0.666E-04  0.666E-04
  38.615  0.772E-04  0.772E-04
  38.630  0.830E-04  0.830E-04
  38.645  0.825E-04  0.825E-04
  38.660  0.763E-04  0.763E-04
  38.675  0.668E-04  0.668E-04
  38.690  0.569E-04  0.569E-04
  38.705  0.490E-04  0.490E-04
  38.720  0.441E-04  0.441E-04
  38.735  0.421E-04  0.421E-04
  38.750  0.422E-04  0.422E-04
  38.765  0.435E-04  0.435E-04
  38.780  0.454E-04  0.454E-04
  38.795  0.477E-04  0.477E-04
  38.810  0.501E-04  0.501E-04
  38.825  0.525E-04  0.525E-04
  38.840  0.551E-04  0.551E-04
  38.855  0.582E-04  0.582E-04
  38.870  0.626E-04  0.626E-04
  38.885  0.685E-04  0.685E-04
  38.900  0.756E-04  0.756E-04
  38.915  0.828E-04  0.828E-04
  38.930  0.887E-04  0.887E-04
  38.945  0.920E-04  0.920E-04
  38.960  0.917E-04  0.917E-04
  38.975  0.877E-04  0.877E-04
  38.990  0.801E-04  0.801E-04
  39.005  0.698E-04  0.698E-04
  39.020  0.578E-04  0.578E-04
  39.035  0.457E-04  0.457E-04
  39.050  0.349E-04  0.349E-04
  39.065  0.265E-04  0.265E-04
  39.080  0.215E-04  0.215E-04
  39.095  0.201E-04  0.201E-04
  39.110  0.220E-04  0.220E-04
  39.125  0.270E-04  0.270E-04
  39.140  0.343E-04  0.343E-04
  39.155  0.434E-04  0.434E-04
  39.170  0.531E-04  0.531E-04
  39.185  0.624E-04  0.624E-04
  39.200  0.697E-04  0.697E-04
  39.215  0.736E-04  0.736E-04
  39.230  0.735E-04  0.735E-04
  39.245  0.697E-04  0.697E-04
  39.260  0.633E-04  0.633E-04
  39.275  0.561E-04  0.561E-04
  39.290  0.500E-04  0.500E-04
  39.305  0.458E-04  0.458E-04
  39.320  0.440E-04  0.440E-04
  39.335  0.440E-04  0.440E-04
  39.350  0.453E-04  0.453E-04
  39.365  0.473E-04  0.473E-04
  39.380  0.492E-04  0.492E-04
  39.395  0.507E-04  0.507E-04
  39.410  0.515E-04  0.515E-04
  39.425  0.518E-04  0.518E-04
  39.440  0.524E-04  0.524E-04
  39.455  0.542E-04  0.542E-04
  39.470  0.582E-04  0.582E-04
  39.485  0.647E-04  0.647E-04
  39.500  0.740E-04  0.740E-04
  39.515  0.864E-04  0.864E-04
  39.530  0.103E-03  0.103E-03
  39.545  0.128E-03  0.128E-03
  39.560  0.162E-03  0.162E-03
  39.575  0.206E-03  0.206E-03
  39.590  0.257E-03  0.257E-03
  39.605  0.308E-03  0.308E-03
  39.620  0.350E-03  0.350E-03
  39.635  0.374E-03  0.374E-03
  39.650  0.378E-03  0.378E-03
  39.665  0.362E-03  0.362E-03
  39.680  0.332E-03  0.332E-03
  39.695  0.296E-03  0.296E-03
  39.710  0.261E-03  0.261E-03
  39.725  0.233E-03  0.233E-03
  39.740  0.215E-03  0.215E-03
  39.755  0.205E-03  0.205E-03
  39.770  0.201E-03  0.201E-03
  39.785  0.200E-03  0.200E-03
  39.800  0.198E-03  0.198E-03
  39.815  0.194E-03  0.194E-03
  39.830  0.185E-03  0.185E-03
  39.845  0.171E-03  0.171E-03
  39.860  0.154E-03  0.154E-03
  39.875  0.139E-03  0.139E-03
  39.890  0.128E-03  0.128E-03
  39.905  0.125E-03  0.125E-03
  39.920  0.131E-03  0.131E-03
  39.935  0.145E-03  0.145E-03
  39.950  0.164E-03  0.164E-03
  39.965  0.185E-03  0.185E-03
  39.980  0.206E-03  0.206E-03
  39.995  0.224E-03  0.224E-03
  40.010  0.238E-03  0.238E-03
  40.025  0.247E-03  0.247E-03
  40.040  0.252E-03  0.252E-03
  40.055  0.250E-03  0.250E-03
  40.070  0.242E-03  0.242E-03
  40.085  0.228E-03  0.228E-03
  40.100  0.209E-03  0.209E-03
  40.115  0.187E-03  0.187E-03
  40.130  0.165E-03  0.165E-03
  40.145  0.147E-03  0.147E-03
  40.160  0.135E-03  0.135E-03
  40.175  0.129E-03  0.129E-03
  40.190  0.127E-03  0.127E-03
  40.205  0.128E-03  0.128E-03
  40.220  0.128E-03  0.128E-03
  40.235  0.127E-03  0.127E-03
  40.250  0.124E-03  0.124E-03
  40.265  0.121E-03  0.121E-03
  40.280  0.121E-03  0.121E-03
  40.295  0.125E-03  0.125E-03
  40.310  0.133E-03  0.133E-03
  40.325  0.146E-03  0.146E-03
  40.340  0.162E-03  0.162E-03
  40.355  0.180E-03  0.180E-03
  40.370  0.197E-03  0.197E-03
  40.385  0.212E-03  0.212E-03
  40.400  0.225E-03  0.225E-03
  40.415  0.235E-03  0.235E-03
  40.430  0.242E-03  0.242E-03
  40.445  0.246E-03  0.246E-03
  40.460  0.249E-03  0.249E-03
  40.475  0.250E-03  0.250E-03
  40.490  0.249E-03  0.249E-03
  40.505  0.246E-03  0.246E-03
  40.520  0.240E-03  0.240E-03
  40.535  0.232E-03  0.232E-03
  40.550  0.221E-03  0.221E-03
  40.565  0.210E-03  0.210E-03
  40.580  0.201E-03  0.201E-03
  40.595  0.195E-03  0.195E-03
  40.610  0.191E-03  0.191E-03
  40.625  0.188E-03  0.188E-03
  40.640  0.187E-03  0.187E-03
  40.655  0.186E-03  0.186E-03
  40.670  0.188E-03  0.188E-03
  40.685  0.193E-03  0.193E-03
  40.700  0.205E-03  0.205E-03
  40.715  0.225E-03  0.225E-03
  40.730  0.250E-03  0.250E-03
  40.745  0.278E-03  0.278E-03
  40.760  0.304E-03  0.304E-03
  40.775  0.321E-03  0.321E-03
  40.790  0.327E-03  0.327E-03
  40.805  0.318E-03  0.318E-03
  40.820  0.299E-03  0.299E-03
  40.835  0.272E-03  0.272E-03
  40.850  0.244E-03  0.244E-03
  40.865  0.220E-03  0.220E-03
  40.880  0.203E-03  0.203E-03
  40.895  0.193E-03  0.193E-03
  40.910  0.189E-03  0.189E-03
  40.925  0.188E-03  0.188E-03
  40.940  0.187E-03  0.187E-03
  40.955  0.185E-03  0.185E-03
  40.970  0.180E-03  0.180E-03
  40.985  0.174E-03  0.174E-03
  41.000  0.168E-03  0.168E-03
  41.015  0.166E-03  0.166E-03
  41.030  0.167E-03  0.167E-03
  41.045  0.172E-03  0.172E-03
  41.060  0.181E-03  0.181E-03
  41.075  0.191E-03  0.191E-03
  41.090  0.200E-03  0.200E-03
  41.105  0.206E-03  0.206E-03
  41.120  0.208E-03  0.208E-03
  41.135  0.207E-03  0.207E-03
  41.150  0.204E-03  0.204E-03
  41.165  0.200E-03  0.200E-03
  41.180  0.196E-03  0.196E-03
  41.195  0.192E-03  0.192E-03
  41.210  0.187E-03  0.187E-03
  41.225  0.183E-03  0.183E-03
  41.240  0.178E-03  0.178E-03
  41.255  0.173E-03  0.173E-03
  41.270  0.171E-03  0.171E-03
  41.285  0.171E-03  0.171E-03
  41.300  0.173E-03  0.173E-03
  41.315  0.178E-03  0.178E-03
  41.330  0.184E-03  0.184E-03
  41.345  0.190E-03  0.190E-03
  41.360  0.196E-03  0.196E-03
  41.375  0.203E-03  0.203E-03
  41.390  0.210E-03  0.210E-03
  41.405  0.217E-03  0.217E-03
  41.420  0.224E-03  0.224E-03
  41.435  0.228E-03  0.228E-03
  41.450  0.228E-03  0.228E-03
  41.465  0.225E-03  0.225E-03
  41.480  0.216E-03  0.216E-03
  41.495  0.202E-03  0.202E-03
  41.510  0.184E-03  0.184E-03
  41.525  0.165E-03  0.165E-03
  41.540  0.146E-03  0.146E-03
  41.555  0.130E-03  0.130E-03
  41.570  0.119E-03  0.119E-03
  41.585  0.111E-03  0.111E-03
  41.600  0.107E-03  0.107E-03
  41.615  0.106E-03  0.106E-03
  41.630  0.104E-03  0.104E-03
  41.645  0.103E-03  0.103E-03
  41.660  0.103E-03  0.103E-03
  41.675  0.103E-03  0.103E-03
  41.690  0.106E-03  0.106E-03
  41.705  0.109E-03  0.109E-03
  41.720  0.113E-03  0.113E-03
  41.735  0.116E-03  0.116E-03
  41.750  0.118E-03  0.118E-03
  41.765  0.119E-03  0.119E-03
  41.780  0.121E-03  0.121E-03
  41.795  0.124E-03  0.124E-03
  41.810  0.129E-03  0.129E-03
  41.825  0.135E-03  0.135E-03
  41.840  0.138E-03  0.138E-03
  41.855  0.138E-03  0.138E-03
  41.870  0.134E-03  0.134E-03
  41.885  0.127E-03  0.127E-03
  41.900  0.118E-03  0.118E-03
  41.915  0.112E-03  0.112E-03
  41.930  0.108E-03  0.108E-03
  41.945  0.107E-03  0.107E-03
  41.960  0.110E-03  0.110E-03
  41.975  0.114E-03  0.114E-03
  41.990  0.118E-03  0.118E-03
  42.005  0.120E-03  0.120E-03
  42.020  0.121E-03  0.121E-03
  42.035  0.120E-03  0.120E-03
  42.050  0.119E-03  0.119E-03
  42.065  0.118E-03  0.118E-03
  42.080  0.119E-03  0.119E-03
  42.095  0.119E-03  0.119E-03
  42.110  0.120E-03  0.120E-03
  42.125  0.119E-03  0.119E-03
  42.140  0.117E-03  0.117E-03
  42.155  0.114E-03  0.114E-03
  42.170  0.113E-03  0.113E-03
  42.185  0.113E-03  0.113E-03
  42.200  0.115E-03  0.115E-03
  42.215  0.121E-03  0.121E-03
  42.230  0.128E-03  0.128E-03
  42.245  0.135E-03  0.135E-03
  42.260  0.140E-03  0.140E-03
  42.275  0.142E-03  0.142E-03
  42.290  0.141E-03  0.141E-03
  42.305  0.139E-03  0.139E-03
  42.320  0.140E-03  0.140E-03
  42.335  0.147E-03  0.147E-03
  42.350  0.161E-03  0.161E-03
  42.365  0.184E-03  0.184E-03
  42.380  0.211E-03  0.211E-03
  42.395  0.240E-03  0.240E-03
  42.410  0.266E-03  0.266E-03
  42.425  0.286E-03  0.286E-03
  42.440  0.299E-03  0.299E-03
  42.455  0.305E-03  0.305E-03
  42.470  0.308E-03  0.308E-03
  42.485  0.307E-03  0.307E-03
  42.500  0.304E-03  0.304E-03
  42.515  0.296E-03  0.296E-03
  42.530  0.282E-03  0.282E-03
  42.545  0.265E-03  0.265E-03
  42.560  0.247E-03  0.247E-03
  42.575  0.233E-03  0.233E-03
  42.590  0.229E-03  0.229E-03
  42.605  0.239E-03  0.239E-03
  42.620  0.262E-03  0.262E-03
  42.635  0.293E-03  0.293E-03
  42.650  0.327E-03  0.327E-03
  42.665  0.355E-03  0.355E-03
  42.680  0.374E-03  0.374E-03
  42.695  0.381E-03  0.381E-03
  42.710  0.378E-03  0.378E-03
  42.725  0.369E-03  0.369E-03
  42.740  0.357E-03  0.357E-03
  42.755  0.343E-03  0.343E-03
  42.770  0.327E-03  0.327E-03
  42.785  0.307E-03  0.307E-03
  42.800  0.282E-03  0.282E-03
  42.815  0.254E-03  0.254E-03
  42.830  0.226E-03  0.226E-03
  42.845  0.200E-03  0.200E-03
  42.860  0.179E-03  0.179E-03
  42.875  0.164E-03  0.164E-03
  42.890  0.154E-03  0.154E-03
  42.905  0.147E-03  0.147E-03
  42.920  0.145E-03  0.145E-03
  42.935  0.145E-03  0.145E-03
  42.950  0.148E-03  0.148E-03
  42.965  0.152E-03  0.152E-03
  42.980  0.156E-03  0.156E-03
  42.995  0.158E-03  0.158E-03
  43.010  0.157E-03  0.157E-03
  43.025  0.150E-03  0.150E-03
  43.040  0.138E-03  0.138E-03
  43.055  0.122E-03  0.122E-03
  43.070  0.103E-03  0.103E-03
  43.085  0.829E-04  0.829E-04
  43.100  0.645E-04  0.645E-04
  43.115  0.490E-04  0.490E-04
  43.130  0.370E-04  0.370E-04
  43.145  0.285E-04  0.285E-04
  43.160  0.229E-04  0.229E-04
  43.175  0.195E-04  0.195E-04
  43.190  0.177E-04  0.177E-04
  43.205  0.171E-04  0.171E-04
  43.220  0.172E-04  0.172E-04
  43.235  0.180E-04  0.180E-04
  43.250  0.193E-04  0.193E-04
  43.265  0.209E-04  0.209E-04
  43.280  0.226E-04  0.226E-04
  43.295  0.242E-04  0.242E-04
  43.310  0.260E-04  0.260E-04
  43.325  0.281E-04  0.281E-04
  43.340  0.306E-04  0.306E-04
  43.355  0.337E-04  0.337E-04
  43.370  0.370E-04  0.370E-04
  43.385  0.404E-04  0.404E-04
  43.400  0.436E-04  0.436E-04
  43.415  0.464E-04  0.464E-04
  43.430  0.489E-04  0.489E-04
  43.445  0.509E-04  0.509E-04
  43.460  0.526E-04  0.526E-04
  43.475  0.535E-04  0.535E-04
  43.490  0.536E-04  0.536E-04
  43.505  0.528E-04  0.528E-04
  43.520  0.514E-04  0.514E-04
  43.535  0.499E-04  0.499E-04
  43.550  0.486E-04  0.486E-04
  43.565  0.480E-04  0.480E-04
  43.580  0.480E-04  0.480E-04
  43.595  0.488E-04  0.488E-04
  43.610  0.502E-04  0.502E-04
  43.625  0.522E-04  0.522E-04
  43.640  0.545E-04  0.545E-04
  43.655  0.567E-04  0.567E-04
  43.670  0.585E-04  0.585E-04
  43.685  0.593E-04  0.593E-04
  43.700  0.590E-04  0.590E-04
  43.715  0.577E-04  0.577E-04
  43.730  0.559E-04  0.559E-04
  43.745  0.543E-04  0.543E-04
  43.760  0.536E-04  0.536E-04
  43.775  0.542E-04  0.542E-04
  43.790  0.559E-04  0.559E-04
  43.805  0.581E-04  0.581E-04
  43.820  0.598E-04  0.598E-04
  43.835  0.601E-04  0.601E-04
  43.850  0.586E-04  0.586E-04
  43.865  0.555E-04  0.555E-04
  43.880  0.516E-04  0.516E-04
  43.895  0.479E-04  0.479E-04
  43.910  0.450E-04  0.450E-04
  43.925  0.430E-04  0.430E-04
  43.940  0.416E-04  0.416E-04
  43.955  0.403E-04  0.403E-04
  43.970  0.387E-04  0.387E-04
  43.985  0.371E-04  0.371E-04
  44.000  0.357E-04  0.357E-04
  44.015  0.352E-04  0.352E-04
  44.030  0.359E-04  0.359E-04
  44.045  0.376E-04  0.376E-04
  44.060  0.399E-04  0.399E-04
  44.075  0.424E-04  0.424E-04
  44.090  0.448E-04  0.448E-04
  44.105  0.475E-04  0.475E-04
  44.120  0.514E-04  0.514E-04
  44.135  0.571E-04  0.571E-04
  44.150  0.647E-04  0.647E-04
  44.165  0.735E-04  0.735E-04
  44.180  0.818E-04  0.818E-04
  44.195  0.878E-04  0.878E-04
  44.210  0.901E-04  0.901E-04
  44.225  0.883E-04  0.883E-04
  44.240  0.831E-04  0.831E-04
  44.255  0.759E-04  0.759E-04
  44.270  0.683E-04  0.683E-04
  44.285  0.613E-04  0.613E-04
  44.300  0.559E-04  0.559E-04
  44.315  0.521E-04  0.521E-04
  44.330  0.497E-04  0.497E-04
  44.345  0.483E-04  0.483E-04
  44.360  0.473E-04  0.473E-04
  44.375  0.463E-04  0.463E-04
  44.390  0.451E-04  0.451E-04
  44.405  0.435E-04  0.435E-04
  44.420  0.418E-04  0.418E-04
  44.435  0.401E-04  0.401E-04
  44.450  0.388E-04  0.388E-04
  44.465  0.382E-04  0.382E-04
  44.480  0.384E-04  0.384E-04
  44.495  0.397E-04  0.397E-04
  44.510  0.420E-04  0.420E-04
  44.525  0.449E-04  0.449E-04
  44.540  0.481E-04  0.481E-04
  44.555  0.509E-04  0.509E-04
  44.570  0.527E-04  0.527E-04
  44.585  0.529E-04  0.529E-04
  44.600  0.516E-04  0.516E-04
  44.615  0.490E-04  0.490E-04
  44.630  0.459E-04  0.459E-04
  44.645  0.431E-04  0.431E-04
  44.660  0.409E-04  0.409E-04
  44.675  0.398E-04  0.398E-04
  44.690  0.397E-04  0.397E-04
  44.705  0.405E-04  0.405E-04
  44.720  0.421E-04  0.421E-04
  44.735  0.442E-04  0.442E-04
  44.750  0.465E-04  0.465E-04
  44.765  0.485E-04  0.485E-04
  44.780  0.497E-04  0.497E-04
  44.795  0.495E-04  0.495E-04
  44.810  0.476E-04  0.476E-04
  44.825  0.439E-04  0.439E-04
  44.840  0.390E-04  0.390E-04
  44.855  0.334E-04  0.334E-04
  44.870  0.280E-04  0.280E-04
  44.885  0.234E-04  0.234E-04
  44.900  0.202E-04  0.202E-04
  44.915  0.183E-04  0.183E-04
  44.930  0.174E-04  0.174E-04
  44.945  0.173E-04  0.173E-04
  44.960  0.173E-04  0.173E-04
  44.975  0.173E-04  0.173E-04
  44.990  0.170E-04  0.170E-04
  45.005  0.166E-04  0.166E-04
  45.020  0.161E-04  0.161E-04
  45.035  0.158E-04  0.158E-04
  45.050  0.158E-04  0.158E-04
  45.065  0.165E-04  0.165E-04
  45.080  0.177E-04  0.177E-04
  45.095  0.193E-04  0.193E-04
  45.110  0.210E-04  0.210E-04
  45.125  0.225E-04  0.225E-04
  45.140  0.236E-04  0.236E-04
  45.155  0.242E-04  0.242E-04
  45.170  0.243E-04  0.243E-04
  45.185  0.239E-04  0.239E-04
  45.200  0.230E-04  0.230E-04
  45.215  0.218E-04  0.218E-04
  45.230  0.202E-04  0.202E-04
  45.245  0.185E-04  0.185E-04
  45.260  0.169E-04  0.169E-04
  45.275  0.155E-04  0.155E-04
  45.290  0.144E-04  0.144E-04
  45.305  0.137E-04  0.137E-04
  45.320  0.133E-04  0.133E-04
  45.335  0.132E-04  0.132E-04
  45.350  0.134E-04  0.134E-04
  45.365  0.139E-04  0.139E-04
  45.380  0.148E-04  0.148E-04
  45.395  0.158E-04  0.158E-04
  45.410  0.170E-04  0.170E-04
  45.425  0.181E-04  0.181E-04
  45.440  0.187E-04  0.187E-04
  45.455  0.187E-04  0.187E-04
  45.470  0.180E-04  0.180E-04
  45.485  0.167E-04  0.167E-04
  45.500  0.150E-04  0.150E-04
  45.515  0.134E-04  0.134E-04
  45.530  0.119E-04  0.119E-04
  45.545  0.109E-04  0.109E-04
  45.560  0.103E-04  0.103E-04
  45.575  0.102E-04  0.102E-04
  45.590  0.105E-04  0.105E-04
  45.605  0.109E-04  0.109E-04
  45.620  0.115E-04  0.115E-04
  45.635  0.121E-04  0.121E-04
  45.650  0.128E-04  0.128E-04
  45.665  0.135E-04  0.135E-04
  45.680  0.144E-04  0.144E-04
  45.695  0.155E-04  0.155E-04
  45.710  0.164E-04  0.164E-04
  45.725  0.171E-04  0.171E-04
  45.740  0.174E-04  0.174E-04
  45.755  0.173E-04  0.173E-04
  45.770  0.172E-04  0.172E-04
  45.785  0.177E-04  0.177E-04
  45.800  0.192E-04  0.192E-04
  45.815  0.222E-04  0.222E-04
  45.830  0.269E-04  0.269E-04
  45.845  0.334E-04  0.334E-04
  45.860  0.413E-04  0.413E-04
  45.875  0.497E-04  0.497E-04
  45.890  0.577E-04  0.577E-04
  45.905  0.644E-04  0.644E-04
  45.920  0.689E-04  0.689E-04
  45.935  0.710E-04  0.710E-04
  45.950  0.710E-04  0.710E-04
  45.965  0.690E-04  0.690E-04
  45.980  0.655E-04  0.655E-04
  45.995  0.608E-04  0.608E-04
  46.010  0.552E-04  0.552E-04
  46.025  0.491E-04  0.491E-04
  46.040  0.432E-04  0.432E-04
  46.055  0.378E-04  0.378E-04
  46.070  0.333E-04  0.333E-04
  46.085  0.297E-04  0.297E-04
  46.100  0.268E-04  0.268E-04
  46.115  0.245E-04  0.245E-04
  46.130  0.226E-04  0.226E-04
  46.145  0.213E-04  0.213E-04
  46.160  0.209E-04  0.209E-04
  46.175  0.214E-04  0.214E-04
  46.190  0.227E-04  0.227E-04
  46.205  0.245E-04  0.245E-04
  46.220  0.261E-04  0.261E-04
  46.235  0.269E-04  0.269E-04
  46.250  0.265E-04  0.265E-04
  46.265  0.249E-04  0.249E-04
  46.280  0.222E-04  0.222E-04
  46.295  0.191E-04  0.191E-04
  46.310  0.163E-04  0.163E-04
  46.325  0.141E-04  0.141E-04
  46.340  0.130E-04  0.130E-04
  46.355  0.126E-04  0.126E-04
  46.370  0.128E-04  0.128E-04
  46.385  0.131E-04  0.131E-04
  46.400  0.133E-04  0.133E-04
  46.415  0.132E-04  0.132E-04
  46.430  0.130E-04  0.130E-04
  46.445  0.125E-04  0.125E-04
  46.460  0.120E-04  0.120E-04
  46.475  0.115E-04  0.115E-04
  46.490  0.111E-04  0.111E-04
  46.505  0.107E-04  0.107E-04
  46.520  0.104E-04  0.104E-04
  46.535  0.101E-04  0.101E-04
  46.550  0.989E-05  0.989E-05
  46.565  0.983E-05  0.983E-05
  46.580  0.100E-04  0.100E-04
  46.595  0.104E-04  0.104E-04
  46.610  0.110E-04  0.110E-04
  46.625  0.116E-04  0.116E-04
  46.640  0.118E-04  0.118E-04
  46.655  0.116E-04  0.116E-04
  46.670  0.108E-04  0.108E-04
  46.685  0.952E-05  0.952E-05
  46.700  0.800E-05  0.800E-05
  46.715  0.646E-05  0.646E-05
  46.730  0.515E-05  0.515E-05
  46.745  0.421E-05  0.421E-05
  46.760  0.367E-05  0.367E-05
  46.775  0.350E-05  0.350E-05
  46.790  0.356E-05  0.356E-05
  46.805  0.369E-05  0.369E-05
  46.820  0.376E-05  0.376E-05
  46.835  0.365E-05  0.365E-05
  46.850  0.335E-05  0.335E-05
  46.865  0.291E-05  0.291E-05
  46.880  0.246E-05  0.246E-05
  46.895  0.211E-05  0.211E-05
  46.910  0.198E-05  0.198E-05
  46.925  0.211E-05  0.211E-05
  46.940  0.251E-05  0.251E-05
  46.955  0.310E-05  0.310E-05
  46.970  0.378E-05  0.378E-05
  46.985  0.441E-05  0.441E-05
  47.000  0.488E-05  0.488E-05
  47.015  0.506E-05  0.506E-05
  47.030  0.493E-05  0.493E-05
  47.045  0.450E-05  0.450E-05
  47.060  0.386E-05  0.386E-05
  47.075  0.315E-05  0.315E-05
  47.090  0.250E-05  0.250E-05
  47.105  0.202E-05  0.202E-05
  47.120  0.177E-05  0.177E-05
  47.135  0.179E-05  0.179E-05
  47.150  0.205E-05  0.205E-05
  47.165  0.253E-05  0.253E-05
  47.180  0.316E-05  0.316E-05
  47.195  0.387E-05  0.387E-05
  47.210  0.455E-05  0.455E-05
  47.225  0.508E-05  0.508E-05
  47.240  0.538E-05  0.538E-05
  47.255  0.541E-05  0.541E-05
  47.270  0.518E-05  0.518E-05
  47.285  0.475E-05  0.475E-05
  47.300  0.422E-05  0.422E-05
  47.315  0.369E-05  0.369E-05
  47.330  0.327E-05  0.327E-05
  47.345  0.301E-05  0.301E-05
  47.360  0.293E-05  0.293E-05
  47.375  0.304E-05  0.304E-05
  47.390  0.326E-05  0.326E-05
  47.405  0.351E-05  0.351E-05
  47.420  0.371E-05  0.371E-05
  47.435  0.380E-05  0.380E-05
  47.450  0.381E-05  0.381E-05
  47.465  0.386E-05  0.386E-05
  47.480  0.414E-05  0.414E-05
  47.495  0.489E-05  0.489E-05
  47.510  0.636E-05  0.636E-05
  47.525  0.871E-05  0.871E-05
  47.540  0.120E-04  0.120E-04
  47.555  0.161E-04  0.161E-04
  47.570  0.206E-04  0.206E-04
  47.585  0.248E-04  0.248E-04
  47.600  0.282E-04  0.282E-04
  47.615  0.303E-04  0.303E-04
  47.630  0.308E-04  0.308E-04
  47.645  0.299E-04  0.299E-04
  47.660  0.280E-04  0.280E-04
  47.675  0.258E-04  0.258E-04
  47.690  0.236E-04  0.236E-04
  47.705  0.217E-04  0.217E-04
  47.720  0.203E-04  0.203E-04
  47.735  0.192E-04  0.192E-04
  47.750  0.185E-04  0.185E-04
  47.765  0.180E-04  0.180E-04
  47.780  0.177E-04  0.177E-04
  47.795  0.175E-04  0.175E-04
  47.810  0.172E-04  0.172E-04
  47.825  0.166E-04  0.166E-04
  47.840  0.159E-04  0.159E-04
  47.855  0.150E-04  0.150E-04
  47.870  0.142E-04  0.142E-04
  47.885  0.137E-04  0.137E-04
  47.900  0.137E-04  0.137E-04
  47.915  0.141E-04  0.141E-04
  47.930  0.148E-04  0.148E-04
  47.945  0.154E-04  0.154E-04
  47.960  0.157E-04  0.157E-04
  47.975  0.155E-04  0.155E-04
  47.990  0.150E-04  0.150E-04
  48.005  0.144E-04  0.144E-04
  48.020  0.137E-04  0.137E-04
  48.035  0.132E-04  0.132E-04
  48.050  0.129E-04  0.129E-04
  48.065  0.130E-04  0.130E-04
  48.080  0.133E-04  0.133E-04
  48.095  0.138E-04  0.138E-04
  48.110  0.146E-04  0.146E-04
  48.125  0.156E-04  0.156E-04
  48.140  0.170E-04  0.170E-04
  48.155  0.189E-04  0.189E-04
  48.170  0.211E-04  0.211E-04
  48.185  0.235E-04  0.235E-04
  48.200  0.257E-04  0.257E-04
  48.215  0.273E-04  0.273E-04
  48.230  0.282E-04  0.282E-04
  48.245  0.285E-04  0.285E-04
  48.260  0.284E-04  0.284E-04
  48.275  0.282E-04  0.282E-04
  48.290  0.279E-04  0.279E-04
  48.305  0.274E-04  0.274E-04
  48.320  0.267E-04  0.267E-04
  48.335  0.261E-04  0.261E-04
  48.350  0.259E-04  0.259E-04
  48.365  0.268E-04  0.268E-04
  48.380  0.291E-04  0.291E-04
  48.395  0.330E-04  0.330E-04
  48.410  0.383E-04  0.383E-04
  48.425  0.444E-04  0.444E-04
  48.440  0.506E-04  0.506E-04
  48.455  0.562E-04  0.562E-04
  48.470  0.606E-04  0.606E-04
  48.485  0.634E-04  0.634E-04
  48.500  0.645E-04  0.645E-04
  48.515  0.639E-04  0.639E-04
  48.530  0.622E-04  0.622E-04
  48.545  0.598E-04  0.598E-04
  48.560  0.575E-04  0.575E-04
  48.575  0.555E-04  0.555E-04
  48.590  0.540E-04  0.540E-04
  48.605  0.527E-04  0.527E-04
  48.620  0.515E-04  0.515E-04
  48.635  0.500E-04  0.500E-04
  48.650  0.484E-04  0.484E-04
  48.665  0.467E-04  0.467E-04
  48.680  0.455E-04  0.455E-04
  48.695  0.448E-04  0.448E-04
  48.710  0.446E-04  0.446E-04
  48.725  0.446E-04  0.446E-04
  48.740  0.442E-04  0.442E-04
  48.755  0.434E-04  0.434E-04
  48.770  0.420E-04  0.420E-04
  48.785  0.403E-04  0.403E-04
  48.800  0.385E-04  0.385E-04
  48.815  0.368E-04  0.368E-04
  48.830  0.351E-04  0.351E-04
  48.845  0.332E-04  0.332E-04
  48.860  0.311E-04  0.311E-04
  48.875  0.289E-04  0.289E-04
  48.890  0.266E-04  0.266E-04
  48.905  0.246E-04  0.246E-04
  48.920  0.229E-04  0.229E-04
  48.935  0.218E-04  0.218E-04
  48.950  0.212E-04  0.212E-04
  48.965  0.208E-04  0.208E-04
  48.980  0.204E-04  0.204E-04
  48.995  0.197E-04  0.197E-04
  49.010  0.185E-04  0.185E-04
  49.025  0.170E-04  0.170E-04
  49.040  0.154E-04  0.154E-04
  49.055  0.141E-04  0.141E-04
  49.070  0.133E-04  0.133E-04
  49.085  0.132E-04  0.132E-04
  49.100  0.136E-04  0.136E-04
  49.115  0.142E-04  0.142E-04
  49.130  0.148E-04  0.148E-04
  49.145  0.153E-04  0.153E-04
  49.160  0.158E-04  0.158E-04
  49.175  0.164E-04  0.164E-04
  49.190  0.173E-04  0.173E-04
  49.205  0.188E-04  0.188E-04
  49.220  0.209E-04  0.209E-04
  49.235  0.234E-04  0.234E-04
  49.250  0.262E-04  0.262E-04
  49.265  0.289E-04  0.289E-04
  49.280  0.313E-04  0.313E-04
  49.295  0.332E-04  0.332E-04
  49.310  0.344E-04  0.344E-04
  49.325  0.349E-04  0.349E-04
  49.340  0.345E-04  0.345E-04
  49.355  0.332E-04  0.332E-04
  49.370  0.312E-04  0.312E-04
  49.385  0.289E-04  0.289E-04
  49.400  0.265E-04  0.265E-04
  49.415  0.244E-04  0.244E-04
  49.430  0.228E-04  0.228E-04
  49.445  0.218E-04  0.218E-04
  49.460  0.211E-04  0.211E-04
  49.475  0.205E-04  0.205E-04
  49.490  0.199E-04  0.199E-04
  49.505  0.193E-04  0.193E-04
  49.520  0.188E-04  0.188E-04
  49.535  0.185E-04  0.185E-04
  49.550  0.184E-04  0.184E-04
  49.565  0.186E-04  0.186E-04
  49.580  0.189E-04  0.189E-04
  49.595  0.192E-04  0.192E-04
  49.610  0.195E-04  0.195E-04
  49.625  0.197E-04  0.197E-04
  49.640  0.201E-04  0.201E-04
  49.655  0.207E-04  0.207E-04
  49.670  0.217E-04  0.217E-04
  49.685  0.231E-04  0.231E-04
  49.700  0.249E-04  0.249E-04
  49.715  0.267E-04  0.267E-04
  49.730  0.282E-04  0.282E-04
  49.745  0.289E-04  0.289E-04
  49.760  0.287E-04  0.287E-04
  49.775  0.276E-04  0.276E-04
  49.790  0.260E-04  0.260E-04
  49.805  0.240E-04  0.240E-04
  49.820  0.223E-04  0.223E-04
  49.835  0.210E-04  0.210E-04
  49.850  0.201E-04  0.201E-04
  49.865  0.196E-04  0.196E-04
  49.880  0.193E-04  0.193E-04
  49.895  0.193E-04  0.193E-04
  49.910  0.197E-04  0.197E-04
  49.925  0.206E-04  0.206E-04
  49.940  0.221E-04  0.221E-04
  49.955  0.240E-04  0.240E-04
  49.970  0.257E-04  0.257E-04
  49.985  0.268E-04  0.268E-04
  50.000  0.268E-04  0.268E-04
  50.015  0.256E-04  0.256E-04
  50.030  0.235E-04  0.235E-04
  50.045  0.211E-04  0.211E-04
  50.060  0.188E-04  0.188E-04
  50.075  0.170E-04  0.170E-04
  50.090  0.159E-04  0.159E-04
  50.105  0.154E-04  0.154E-04
  50.120  0.154E-04  0.154E-04
  50.135  0.159E-04  0.159E-04
  50.150  0.168E-04  0.168E-04
  50.165  0.182E-04  0.182E-04
  50.180  0.198E-04  0.198E-04
  50.195  0.214E-04  0.214E-04
  50.210  0.226E-04  0.226E-04
  50.225  0.232E-04  0.232E-04
  50.240  0.230E-04  0.230E-04
  50.255  0.220E-04  0.220E-04
  50.270  0.204E-04  0.204E-04
  50.285  0.184E-04  0.184E-04
  50.300  0.164E-04  0.164E-04
  50.315  0.145E-04  0.145E-04
  50.330  0.129E-04  0.129E-04
  50.345  0.120E-04  0.120E-04
  50.360  0.117E-04  0.117E-04
  50.375  0.122E-04  0.122E-04
  50.390  0.135E-04  0.135E-04
  50.405  0.157E-04  0.157E-04
  50.420  0.187E-04  0.187E-04
  50.435  0.223E-04  0.223E-04
  50.450  0.260E-04  0.260E-04
  50.465  0.292E-04  0.292E-04
  50.480  0.311E-04  0.311E-04
  50.495  0.313E-04  0.313E-04
  50.510  0.299E-04  0.299E-04
  50.525  0.274E-04  0.274E-04
  50.540  0.245E-04  0.245E-04
  50.555  0.222E-04  0.222E-04
  50.570  0.210E-04  0.210E-04
  50.585  0.213E-04  0.213E-04
  50.600  0.228E-04  0.228E-04
  50.615  0.256E-04  0.256E-04
  50.630  0.291E-04  0.291E-04
  50.645  0.330E-04  0.330E-04
  50.660  0.369E-04  0.369E-04
  50.675  0.406E-04  0.406E-04
  50.690  0.436E-04  0.436E-04
  50.705  0.459E-04  0.459E-04
  50.720  0.473E-04  0.473E-04
  50.735  0.476E-04  0.476E-04
  50.750  0.466E-04  0.466E-04
  50.765  0.442E-04  0.442E-04
  50.780  0.405E-04  0.405E-04
  50.795  0.356E-04  0.356E-04
  50.810  0.301E-04  0.301E-04
  50.825  0.247E-04  0.247E-04
  50.840  0.201E-04  0.201E-04
  50.855  0.167E-04  0.167E-04
  50.870  0.146E-04  0.146E-04
  50.885  0.137E-04  0.137E-04
  50.900  0.137E-04  0.137E-04
  50.915  0.143E-04  0.143E-04
  50.930  0.150E-04  0.150E-04
  50.945  0.154E-04  0.154E-04
  50.960  0.152E-04  0.152E-04
  50.975  0.145E-04  0.145E-04
  50.990  0.134E-04  0.134E-04
  51.005  0.123E-04  0.123E-04
  51.020  0.114E-04  0.114E-04
  51.035  0.111E-04  0.111E-04
  51.050  0.114E-04  0.114E-04
  51.065  0.122E-04  0.122E-04
  51.080  0.134E-04  0.134E-04
  51.095  0.147E-04  0.147E-04
  51.110  0.162E-04  0.162E-04
  51.125  0.175E-04  0.175E-04
  51.140  0.186E-04  0.186E-04
  51.155  0.191E-04  0.191E-04
  51.170  0.191E-04  0.191E-04
  51.185  0.184E-04  0.184E-04
  51.200  0.172E-04  0.172E-04
  51.215  0.157E-04  0.157E-04
  51.230  0.142E-04  0.142E-04
  51.245  0.130E-04  0.130E-04
  51.260  0.121E-04  0.121E-04
  51.275  0.116E-04  0.116E-04
  51.290  0.116E-04  0.116E-04
  51.305  0.118E-04  0.118E-04
  51.320  0.121E-04  0.121E-04
  51.335  0.123E-04  0.123E-04
  51.350  0.121E-04  0.121E-04
  51.365  0.115E-04  0.115E-04
  51.380  0.105E-04  0.105E-04
  51.395  0.930E-05  0.930E-05
  51.410  0.820E-05  0.820E-05
  51.425  0.735E-05  0.735E-05
  51.440  0.688E-05  0.688E-05
  51.455  0.683E-05  0.683E-05
  51.470  0.721E-05  0.721E-05
  51.485  0.803E-05  0.803E-05
  51.500  0.927E-05  0.927E-05
  51.515  0.108E-04  0.108E-04
  51.530  0.124E-04  0.124E-04
  51.545  0.137E-04  0.137E-04
  51.560  0.145E-04  0.145E-04
  51.575  0.146E-04  0.146E-04
  51.590  0.141E-04  0.141E-04
  51.605  0.131E-04  0.131E-04
  51.620  0.117E-04  0.117E-04
  51.635  0.103E-04  0.103E-04
  51.650  0.898E-05  0.898E-05
  51.665  0.799E-05  0.799E-05
  51.680  0.756E-05  0.756E-05
  51.695  0.786E-05  0.786E-05
  51.710  0.887E-05  0.887E-05
  51.725  0.103E-04  0.103E-04
  51.740  0.118E-04  0.118E-04
  51.755  0.127E-04  0.127E-04
  51.770  0.128E-04  0.128E-04
  51.785  0.119E-04  0.119E-04
  51.800  0.102E-04  0.102E-04
  51.815  0.825E-05  0.825E-05
  51.830  0.643E-05  0.643E-05
  51.845  0.507E-05  0.507E-05
  51.860  0.435E-05  0.435E-05
  51.875  0.427E-05  0.427E-05
  51.890  0.475E-05  0.475E-05
  51.905  0.572E-05  0.572E-05
  51.920  0.708E-05  0.708E-05
  51.935  0.871E-05  0.871E-05
  51.950  0.104E-04  0.104E-04
  51.965  0.119E-04  0.119E-04
  51.980  0.129E-04  0.129E-04
  51.995  0.133E-04  0.133E-04
  52.010  0.130E-04  0.130E-04
  52.025  0.122E-04  0.122E-04
  52.040  0.112E-04  0.112E-04
  52.055  0.102E-04  0.102E-04
  52.070  0.939E-05  0.939E-05
  52.085  0.875E-05  0.875E-05
  52.100  0.828E-05  0.828E-05
  52.115  0.798E-05  0.798E-05
  52.130  0.790E-05  0.790E-05
  52.145  0.813E-05  0.813E-05
  52.160  0.867E-05  0.867E-05
  52.175  0.943E-05  0.943E-05
  52.190  0.102E-04  0.102E-04
  52.205  0.108E-04  0.108E-04
  52.220  0.110E-04  0.110E-04
  52.235  0.108E-04  0.108E-04
  52.250  0.104E-04  0.104E-04
  52.265  0.975E-05  0.975E-05
  52.280  0.904E-05  0.904E-05
  52.295  0.832E-05  0.832E-05
  52.310  0.766E-05  0.766E-05
  52.325  0.720E-05  0.720E-05
  52.340  0.713E-05  0.713E-05
  52.355  0.758E-05  0.758E-05
  52.370  0.854E-05  0.854E-05
  52.385  0.979E-05  0.979E-05
  52.400  0.110E-04  0.110E-04
  52.415  0.117E-04  0.117E-04
  52.430  0.117E-04  0.117E-04
  52.445  0.110E-04  0.110E-04
  52.460  0.987E-05  0.987E-05
  52.475  0.876E-05  0.876E-05
  52.490  0.807E-05  0.807E-05
  52.505  0.800E-05  0.800E-05
  52.520  0.854E-05  0.854E-05
  52.535  0.952E-05  0.952E-05
  52.550  0.107E-04  0.107E-04
  52.565  0.118E-04  0.118E-04
  52.580  0.127E-04  0.127E-04
  52.595  0.133E-04  0.133E-04
  52.610  0.134E-04  0.134E-04
  52.625  0.131E-04  0.131E-04
  52.640  0.124E-04  0.124E-04
  52.655  0.115E-04  0.115E-04
  52.670  0.106E-04  0.106E-04
  52.685  0.991E-05  0.991E-05
  52.700  0.968E-05  0.968E-05
  52.715  0.992E-05  0.992E-05
  52.730  0.105E-04  0.105E-04
  52.745  0.114E-04  0.114E-04
  52.760  0.123E-04  0.123E-04
  52.775  0.131E-04  0.131E-04
  52.790  0.139E-04  0.139E-04
  52.805  0.143E-04  0.143E-04
  52.820  0.143E-04  0.143E-04
  52.835  0.139E-04  0.139E-04
  52.850  0.132E-04  0.132E-04
  52.865  0.122E-04  0.122E-04
  52.880  0.114E-04  0.114E-04
  52.895  0.111E-04  0.111E-04
  52.910  0.115E-04  0.115E-04
  52.925  0.128E-04  0.128E-04
  52.940  0.146E-04  0.146E-04
  52.955  0.167E-04  0.167E-04
  52.970  0.186E-04  0.186E-04
  52.985  0.202E-04  0.202E-04
  53.000  0.211E-04  0.211E-04
  53.015  0.214E-04  0.214E-04
  53.030  0.212E-04  0.212E-04
  53.045  0.206E-04  0.206E-04
  53.060  0.194E-04  0.194E-04
  53.075  0.176E-04  0.176E-04
  53.090  0.153E-04  0.153E-04
  53.105  0.125E-04  0.125E-04
  53.120  0.953E-05  0.953E-05
  53.135  0.679E-05  0.679E-05
  53.150  0.451E-05  0.451E-05
  53.165  0.283E-05  0.283E-05
  53.180  0.173E-05  0.173E-05
  53.195  0.110E-05  0.110E-05
  53.210  0.821E-06  0.821E-06
  53.225  0.755E-06  0.755E-06
  53.240  0.827E-06  0.827E-06
  53.255  0.101E-05  0.101E-05
  53.270  0.131E-05  0.131E-05
  53.285  0.176E-05  0.176E-05
  53.300  0.241E-05  0.241E-05
  53.315  0.323E-05  0.323E-05
  53.330  0.416E-05  0.416E-05
  53.345  0.503E-05  0.503E-05
  53.360  0.566E-05  0.566E-05
  53.375  0.590E-05  0.590E-05
  53.390  0.571E-05  0.571E-05
  53.405  0.515E-05  0.515E-05
  53.420  0.440E-05  0.440E-05
  53.435  0.366E-05  0.366E-05
  53.450  0.310E-05  0.310E-05
  53.465  0.279E-05  0.279E-05
  53.480  0.275E-05  0.275E-05
  53.495  0.294E-05  0.294E-05
  53.510  0.333E-05  0.333E-05
  53.525  0.387E-05  0.387E-05
  53.540  0.453E-05  0.453E-05
  53.555  0.526E-05  0.526E-05
  53.570  0.602E-05  0.602E-05
  53.585  0.674E-05  0.674E-05
  53.600  0.736E-05  0.736E-05
  53.615  0.783E-05  0.783E-05
  53.630  0.809E-05  0.809E-05
  53.645  0.817E-05  0.817E-05
  53.660  0.814E-05  0.814E-05
  53.675  0.812E-05  0.812E-05
  53.690  0.821E-05  0.821E-05
  53.705  0.845E-05  0.845E-05
  53.720  0.877E-05  0.877E-05
  53.735  0.903E-05  0.903E-05
  53.750  0.914E-05  0.914E-05
  53.765  0.911E-05  0.911E-05
  53.780  0.903E-05  0.903E-05
  53.795  0.908E-05  0.908E-05
  53.810  0.938E-05  0.938E-05
  53.825  0.996E-05  0.996E-05
  53.840  0.107E-04  0.107E-04
  53.855  0.115E-04  0.115E-04
  53.870  0.121E-04  0.121E-04
  53.885  0.123E-04  0.123E-04
  53.900  0.121E-04  0.121E-04
  53.915  0.115E-04  0.115E-04
  53.930  0.106E-04  0.106E-04
  53.945  0.969E-05  0.969E-05
  53.960  0.886E-05  0.886E-05
  53.975  0.822E-05  0.822E-05
  53.990  0.778E-05  0.778E-05
  54.005  0.750E-05  0.750E-05
  54.020  0.730E-05  0.730E-05
  54.035  0.712E-05  0.712E-05
  54.050  0.694E-05  0.694E-05
  54.065  0.681E-05  0.681E-05
  54.080  0.683E-05  0.683E-05
  54.095  0.707E-05  0.707E-05
  54.110  0.752E-05  0.752E-05
  54.125  0.810E-05  0.810E-05
  54.140  0.864E-05  0.864E-05
  54.155  0.896E-05  0.896E-05
  54.170  0.893E-05  0.893E-05
  54.185  0.851E-05  0.851E-05
  54.200  0.781E-05  0.781E-05
  54.215  0.702E-05  0.702E-05
  54.230  0.643E-05  0.643E-05
  54.245  0.628E-05  0.628E-05
  54.260  0.671E-05  0.671E-05
  54.275  0.768E-05  0.768E-05
  54.290  0.900E-05  0.900E-05
  54.305  0.103E-04  0.103E-04
  54.320  0.113E-04  0.113E-04
  54.335  0.117E-04  0.117E-04
  54.350  0.115E-04  0.115E-04
  54.365  0.107E-04  0.107E-04
  54.380  0.965E-05  0.965E-05
  54.395  0.862E-05  0.862E-05
  54.410  0.782E-05  0.782E-05
  54.425  0.733E-05  0.733E-05
  54.440  0.719E-05  0.719E-05
  54.455  0.735E-05  0.735E-05
  54.470  0.775E-05  0.775E-05
  54.485  0.828E-05  0.828E-05
  54.500  0.878E-05  0.878E-05
  54.515  0.910E-05  0.910E-05
  54.530  0.914E-05  0.914E-05
  54.545  0.885E-05  0.885E-05
  54.560  0.834E-05  0.834E-05
  54.575  0.778E-05  0.778E-05
  54.590  0.741E-05  0.741E-05
  54.605  0.741E-05  0.741E-05
  54.620  0.788E-05  0.788E-05
  54.635  0.883E-05  0.883E-05
  54.650  0.102E-04  0.102E-04
  54.665  0.118E-04  0.118E-04
  54.680  0.139E-04  0.139E-04
  54.695  0.166E-04  0.166E-04
  54.710  0.206E-04  0.206E-04
  54.725  0.264E-04  0.264E-04
  54.740  0.343E-04  0.343E-04
  54.755  0.441E-04  0.441E-04
  54.770  0.546E-04  0.546E-04
  54.785  0.642E-04  0.642E-04
  54.800  0.707E-04  0.707E-04
  54.815  0.724E-04  0.724E-04
  54.830  0.685E-04  0.685E-04
  54.845  0.599E-04  0.599E-04
  54.860  0.483E-04  0.483E-04
  54.875  0.361E-04  0.361E-04
  54.890  0.251E-04  0.251E-04
  54.905  0.166E-04  0.166E-04
  54.920  0.107E-04  0.107E-04
  54.935  0.699E-05  0.699E-05
  54.950  0.489E-05  0.489E-05
  54.965  0.375E-05  0.375E-05
  54.980  0.314E-05  0.314E-05
  54.995  0.276E-05  0.276E-05
  55.010  0.249E-05  0.249E-05
  55.025  0.226E-05  0.226E-05
  55.040  0.209E-05  0.209E-05
  55.055  0.199E-05  0.199E-05
  55.070  0.197E-05  0.197E-05
  55.085  0.203E-05  0.203E-05
  55.100  0.215E-05  0.215E-05
  55.115  0.230E-05  0.230E-05
  55.130  0.246E-05  0.246E-05
  55.145  0.262E-05  0.262E-05
  55.160  0.275E-05  0.275E-05
  55.175  0.286E-05  0.286E-05
  55.190  0.292E-05  0.292E-05
  55.205  0.294E-05  0.294E-05
  55.220  0.292E-05  0.292E-05
  55.235  0.289E-05  0.289E-05
  55.250  0.288E-05  0.288E-05
  55.265  0.292E-05  0.292E-05
  55.280  0.300E-05  0.300E-05
  55.295  0.311E-05  0.311E-05
  55.310  0.320E-05  0.320E-05
  55.325  0.322E-05  0.322E-05
  55.340  0.314E-05  0.314E-05
  55.355  0.297E-05  0.297E-05
  55.370  0.272E-05  0.272E-05
  55.385  0.245E-05  0.245E-05
  55.400  0.220E-05  0.220E-05
  55.415  0.202E-05  0.202E-05
  55.430  0.193E-05  0.193E-05
  55.445  0.193E-05  0.193E-05
  55.460  0.198E-05  0.198E-05
  55.475  0.205E-05  0.205E-05
  55.490  0.209E-05  0.209E-05
  55.505  0.206E-05  0.206E-05
  55.520  0.194E-05  0.194E-05
  55.535  0.176E-05  0.176E-05
  55.550  0.157E-05  0.157E-05
  55.565  0.143E-05  0.143E-05
  55.580  0.142E-05  0.142E-05
  55.595  0.159E-05  0.159E-05
  55.610  0.193E-05  0.193E-05
  55.625  0.240E-05  0.240E-05
  55.640  0.289E-05  0.289E-05
  55.655  0.330E-05  0.330E-05
  55.670  0.351E-05  0.351E-05
  55.685  0.347E-05  0.347E-05
  55.700  0.323E-05  0.323E-05
  55.715  0.286E-05  0.286E-05
  55.730  0.253E-05  0.253E-05
  55.745  0.235E-05  0.235E-05
  55.760  0.241E-05  0.241E-05
  55.775  0.273E-05  0.273E-05
  55.790  0.324E-05  0.324E-05
  55.805  0.381E-05  0.381E-05
  55.820  0.434E-05  0.434E-05
  55.835  0.470E-05  0.470E-05
  55.850  0.490E-05  0.490E-05
  55.865  0.496E-05  0.496E-05
  55.880  0.496E-05  0.496E-05
  55.895  0.501E-05  0.501E-05
  55.910  0.514E-05  0.514E-05
  55.925  0.537E-05  0.537E-05
  55.940  0.567E-05  0.567E-05
  55.955  0.596E-05  0.596E-05
  55.970  0.618E-05  0.618E-05
  55.985  0.623E-05  0.623E-05
  56.000  0.606E-05  0.606E-05
  56.015  0.567E-05  0.567E-05
  56.030  0.513E-05  0.513E-05
  56.045  0.462E-05  0.462E-05
  56.060  0.432E-05  0.432E-05
  56.075  0.443E-05  0.443E-05
  56.090  0.502E-05  0.502E-05
  56.105  0.604E-05  0.604E-05
  56.120  0.729E-05  0.729E-05
  56.135  0.851E-05  0.851E-05
  56.150  0.940E-05  0.940E-05
  56.165  0.979E-05  0.979E-05
  56.180  0.965E-05  0.965E-05
  56.195  0.909E-05  0.909E-05
  56.210  0.830E-05  0.830E-05
  56.225  0.740E-05  0.740E-05
  56.240  0.650E-05  0.650E-05
  56.255  0.559E-05  0.559E-05
  56.270  0.468E-05  0.468E-05
  56.285  0.379E-05  0.379E-05
  56.300  0.295E-05  0.295E-05
  56.315  0.223E-05  0.223E-05
  56.330  0.165E-05  0.165E-05
  56.345  0.125E-05  0.125E-05
  56.360  0.102E-05  0.102E-05
  56.375  0.909E-06  0.909E-06
  56.390  0.904E-06  0.904E-06
  56.405  0.970E-06  0.970E-06
  56.420  0.108E-05  0.108E-05
  56.435  0.120E-05  0.120E-05
  56.450  0.131E-05  0.131E-05
  56.465  0.138E-05  0.138E-05
  56.480  0.141E-05  0.141E-05
  56.495  0.140E-05  0.140E-05
  56.510  0.134E-05  0.134E-05
  56.525  0.126E-05  0.126E-05
  56.540  0.116E-05  0.116E-05
  56.555  0.106E-05  0.106E-05
  56.570  0.971E-06  0.971E-06
  56.585  0.888E-06  0.888E-06
  56.600  0.817E-06  0.817E-06
  56.615  0.758E-06  0.758E-06
  56.630  0.710E-06  0.710E-06
  56.645  0.671E-06  0.671E-06
  56.660  0.642E-06  0.642E-06
  56.675  0.620E-06  0.620E-06
  56.690  0.607E-06  0.607E-06
  56.705  0.600E-06  0.600E-06
  56.720  0.599E-06  0.599E-06
  56.735  0.599E-06  0.599E-06
  56.750  0.595E-06  0.595E-06
  56.765  0.579E-06  0.579E-06
  56.780  0.544E-06  0.544E-06
  56.795  0.488E-06  0.488E-06
  56.810  0.414E-06  0.414E-06
  56.825  0.328E-06  0.328E-06
  56.840  0.242E-06  0.242E-06
  56.855  0.165E-06  0.165E-06
  56.870  0.104E-06  0.104E-06
  56.885  0.599E-07  0.599E-07
  56.900  0.317E-07  0.317E-07
  56.915  0.153E-07  0.153E-07
  56.930  0.676E-08  0.676E-08
  56.945  0.272E-08  0.272E-08
  56.960  0.100E-08  0.100E-08
  56.975  0.334E-09  0.334E-09
  56.990  0.102E-09  0.102E-09
  57.005  0.282E-10  0.282E-10
  57.020  0.711E-11  0.711E-11
