# E (eV)   ldos(E)   pdos(E)   
 -10.638  0.507E-04  0.507E-04
 -10.623  0.708E-04  0.708E-04
 -10.608  0.983E-04  0.983E-04
 -10.593  0.136E-03  0.136E-03
 -10.578  0.186E-03  0.186E-03
 -10.563  0.254E-03  0.254E-03
 -10.548  0.344E-03  0.344E-03
 -10.533  0.464E-03  0.464E-03
 -10.518  0.621E-03  0.621E-03
 -10.503  0.827E-03  0.827E-03
 -10.488  0.109E-02  0.109E-02
 -10.473  0.144E-02  0.144E-02
 -10.458  0.188E-02  0.188E-02
 -10.443  0.245E-02  0.245E-02
 -10.428  0.316E-02  0.316E-02
 -10.413  0.407E-02  0.407E-02
 -10.398  0.519E-02  0.519E-02
 -10.383  0.659E-02  0.659E-02
 -10.368  0.832E-02  0.832E-02
 -10.353  0.104E-01  0.104E-01
 -10.338  0.130E-01  0.130E-01
 -10.323  0.161E-01  0.161E-01
 -10.308  0.199E-01  0.199E-01
 -10.293  0.244E-01  0.244E-01
 -10.278  0.297E-01  0.297E-01
 -10.263  0.360E-01  0.360E-01
 -10.248  0.434E-01  0.434E-01
 -10.233  0.519E-01  0.519E-01
 -10.218  0.618E-01  0.618E-01
 -10.203  0.731E-01  0.731E-01
 -10.188  0.861E-01  0.861E-01
 -10.173  0.101E+00  0.101E+00
 -10.158  0.117E+00  0.117E+00
 -10.143  0.136E+00  0.136E+00
 -10.128  0.156E+00  0.156E+00
 -10.113  0.179E+00  0.179E+00
 -10.098  0.203E+00  0.203E+00
 -10.083  0.230E+00  0.230E+00
 -10.068  0.259E+00  0.259E+00
 -10.053  0.290E+00  0.290E+00
 -10.038  0.324E+00  0.324E+00
 -10.023  0.359E+00  0.359E+00
 -10.008  0.396E+00  0.396E+00
  -9.993  0.435E+00  0.435E+00
  -9.978  0.475E+00  0.475E+00
  -9.963  0.516E+00  0.516E+00
  -9.948  0.559E+00  0.559E+00
  -9.933  0.603E+00  0.603E+00
  -9.918  0.647E+00  0.647E+00
  -9.903  0.692E+00  0.692E+00
  -9.888  0.737E+00  0.737E+00
  -9.873  0.782E+00  0.782E+00
  -9.858  0.827E+00  0.827E+00
  -9.843  0.872E+00  0.872E+00
  -9.828  0.917E+00  0.917E+00
  -9.813  0.962E+00  0.962E+00
  -9.798  0.101E+01  0.101E+01
  -9.783  0.105E+01  0.105E+01
  -9.768  0.109E+01  0.109E+01
  -9.753  0.114E+01  0.114E+01
  -9.738  0.118E+01  0.118E+01
  -9.723  0.122E+01  0.122E+01
  -9.708  0.126E+01  0.126E+01
  -9.693  0.131E+01  0.131E+01
  -9.678  0.135E+01  0.135E+01
  -9.663  0.139E+01  0.139E+01
  -9.648  0.143E+01  0.143E+01
  -9.633  0.148E+01  0.148E+01
  -9.618  0.152E+01  0.152E+01
  -9.603  0.156E+01  0.156E+01
  -9.588  0.160E+01  0.160E+01
  -9.573  0.163E+01  0.163E+01
  -9.558  0.167E+01  0.167E+01
  -9.543  0.170E+01  0.170E+01
  -9.528  0.173E+01  0.173E+01
  -9.513  0.176E+01  0.176E+01
  -9.498  0.178E+01  0.178E+01
  -9.483  0.180E+01  0.180E+01
  -9.468  0.181E+01  0.181E+01
  -9.453  0.182E+01  0.182E+01
  -9.438  0.183E+01  0.183E+01
  -9.423  0.182E+01  0.182E+01
  -9.408  0.181E+01  0.181E+01
  -9.393  0.180E+01  0.180E+01
  -9.378  0.178E+01  0.178E+01
  -9.363  0.175E+01  0.175E+01
  -9.348  0.171E+01  0.171E+01
  -9.333  0.167E+01  0.167E+01
  -9.318  0.162E+01  0.162E+01
  -9.303  0.157E+01  0.157E+01
  -9.288  0.152E+01  0.152E+01
  -9.273  0.146E+01  0.146E+01
  -9.258  0.139E+01  0.139E+01
  -9.243  0.132E+01  0.132E+01
  -9.228  0.125E+01  0.125E+01
  -9.213  0.118E+01  0.118E+01
  -9.198  0.111E+01  0.111E+01
  -9.183  0.104E+01  0.104E+01
  -9.168  0.964E+00  0.964E+00
  -9.153  0.892E+00  0.892E+00
  -9.138  0.821E+00  0.821E+00
  -9.123  0.753E+00  0.753E+00
  -9.108  0.687E+00  0.687E+00
  -9.093  0.624E+00  0.624E+00
  -9.078  0.563E+00  0.563E+00
  -9.063  0.506E+00  0.506E+00
  -9.048  0.453E+00  0.453E+00
  -9.033  0.403E+00  0.403E+00
  -9.018  0.357E+00  0.357E+00
  -9.003  0.314E+00  0.314E+00
  -8.988  0.276E+00  0.276E+00
  -8.973  0.240E+00  0.240E+00
  -8.958  0.208E+00  0.208E+00
  -8.943  0.180E+00  0.180E+00
  -8.928  0.154E+00  0.154E+00
  -8.913  0.132E+00  0.132E+00
  -8.898  0.112E+00  0.112E+00
  -8.883  0.945E-01  0.945E-01
  -8.868  0.794E-01  0.794E-01
  -8.853  0.664E-01  0.664E-01
  -8.838  0.551E-01  0.551E-01
  -8.823  0.456E-01  0.456E-01
  -8.808  0.375E-01  0.375E-01
  -8.793  0.306E-01  0.306E-01
  -8.778  0.249E-01  0.249E-01
  -8.763  0.201E-01  0.201E-01
  -8.748  0.162E-01  0.162E-01
  -8.733  0.129E-01  0.129E-01
  -8.718  0.103E-01  0.103E-01
  -8.703  0.812E-02  0.812E-02
  -8.688  0.639E-02  0.639E-02
  -8.673  0.499E-02  0.499E-02
  -8.658  0.388E-02  0.388E-02
  -8.643  0.299E-02  0.299E-02
  -8.628  0.230E-02  0.230E-02
  -8.613  0.176E-02  0.176E-02
  -8.598  0.133E-02  0.133E-02
  -8.583  0.101E-02  0.101E-02
  -8.568  0.756E-03  0.756E-03
  -8.553  0.564E-03  0.564E-03
  -8.538  0.418E-03  0.418E-03
  -8.523  0.308E-03  0.308E-03
  -8.508  0.226E-03  0.226E-03
  -8.493  0.165E-03  0.165E-03
  -8.478  0.119E-03  0.119E-03
  -8.463  0.860E-04  0.860E-04
  -8.448  0.616E-04  0.616E-04
  -8.433  0.439E-04  0.439E-04
  -8.418  0.310E-04  0.310E-04
  -8.403  0.218E-04  0.218E-04
  -8.388  0.153E-04  0.153E-04
  -8.373  0.106E-04  0.106E-04
  -8.358  0.734E-05  0.734E-05
  -8.343  0.504E-05  0.504E-05
  -8.328  0.345E-05  0.345E-05
  -8.313  0.234E-05  0.234E-05
  -8.298  0.158E-05  0.158E-05
  -8.283  0.107E-05  0.107E-05
  -8.268  0.717E-06  0.717E-06
  -8.253  0.485E-06  0.485E-06
  -8.238  0.333E-06  0.333E-06
  -8.223  0.237E-06  0.237E-06
  -8.208  0.182E-06  0.182E-06
  -8.193  0.158E-06  0.158E-06
  -8.178  0.158E-06  0.158E-06
  -8.163  0.180E-06  0.180E-06
  -8.148  0.226E-06  0.226E-06
  -8.133  0.298E-06  0.298E-06
  -8.118  0.403E-06  0.403E-06
  -8.103  0.550E-06  0.550E-06
  -8.088  0.752E-06  0.752E-06
  -8.073  0.102E-05  0.102E-05
  -8.058  0.139E-05  0.139E-05
  -8.043  0.188E-05  0.188E-05
  -8.028  0.253E-05  0.253E-05
  -8.013  0.338E-05  0.338E-05
  -7.998  0.451E-05  0.451E-05
  -7.983  0.597E-05  0.597E-05
  -7.968  0.786E-05  0.786E-05
  -7.953  0.103E-04  0.103E-04
  -7.938  0.134E-04  0.134E-04
  -7.923  0.174E-04  0.174E-04
  -7.908  0.225E-04  0.225E-04
  -7.893  0.289E-04  0.289E-04
  -7.878  0.369E-04  0.369E-04
  -7.863  0.469E-04  0.469E-04
  -7.848  0.593E-04  0.593E-04
  -7.833  0.746E-04  0.746E-04
  -7.818  0.934E-04  0.934E-04
  -7.803  0.116E-03  0.116E-03
  -7.788  0.144E-03  0.144E-03
  -7.773  0.178E-03  0.178E-03
  -7.758  0.218E-03  0.218E-03
  -7.743  0.267E-03  0.267E-03
  -7.728  0.324E-03  0.324E-03
  -7.713  0.392E-03  0.392E-03
  -7.698  0.471E-03  0.471E-03
  -7.683  0.564E-03  0.564E-03
  -7.668  0.673E-03  0.673E-03
  -7.653  0.798E-03  0.798E-03
  -7.638  0.942E-03  0.942E-03
  -7.623  0.111E-02  0.111E-02
  -7.608  0.129E-02  0.129E-02
  -7.593  0.150E-02  0.150E-02
  -7.578  0.174E-02  0.174E-02
  -7.563  0.201E-02  0.201E-02
  -7.548  0.231E-02  0.231E-02
  -7.533  0.263E-02  0.263E-02
  -7.518  0.299E-02  0.299E-02
  -7.503  0.339E-02  0.339E-02
  -7.488  0.382E-02  0.382E-02
  -7.473  0.429E-02  0.429E-02
  -7.458  0.479E-02  0.479E-02
  -7.443  0.534E-02  0.534E-02
  -7.428  0.591E-02  0.591E-02
  -7.413  0.653E-02  0.653E-02
  -7.398  0.718E-02  0.718E-02
  -7.383  0.786E-02  0.786E-02
  -7.368  0.858E-02  0.858E-02
  -7.353  0.932E-02  0.932E-02
  -7.338  0.101E-01  0.101E-01
  -7.323  0.109E-01  0.109E-01
  -7.308  0.117E-01  0.117E-01
  -7.293  0.126E-01  0.126E-01
  -7.278  0.135E-01  0.135E-01
  -7.263  0.144E-01  0.144E-01
  -7.248  0.153E-01  0.153E-01
  -7.233  0.162E-01  0.162E-01
  -7.218  0.171E-01  0.171E-01
  -7.203  0.181E-01  0.181E-01
  -7.188  0.191E-01  0.191E-01
  -7.173  0.201E-01  0.201E-01
  -7.158  0.211E-01  0.211E-01
  -7.143  0.222E-01  0.222E-01
  -7.128  0.232E-01  0.232E-01
  -7.113  0.243E-01  0.243E-01
  -7.098  0.255E-01  0.255E-01
  -7.083  0.267E-01  0.267E-01
  -7.068  0.280E-01  0.280E-01
  -7.053  0.293E-01  0.293E-01
  -7.038  0.308E-01  0.308E-01
  -7.023  0.323E-01  0.323E-01
  -7.008  0.340E-01  0.340E-01
  -6.993  0.358E-01  0.358E-01
  -6.978  0.379E-01  0.379E-01
  -6.963  0.401E-01  0.401E-01
  -6.948  0.425E-01  0.425E-01
  -6.933  0.453E-01  0.453E-01
  -6.918  0.483E-01  0.483E-01
  -6.903  0.517E-01  0.517E-01
  -6.888  0.554E-01  0.554E-01
  -6.873  0.596E-01  0.596E-01
  -6.858  0.643E-01  0.643E-01
  -6.843  0.695E-01  0.695E-01
  -6.828  0.752E-01  0.752E-01
  -6.813  0.815E-01  0.815E-01
  -6.798  0.884E-01  0.884E-01
  -6.783  0.960E-01  0.960E-01
  -6.768  0.104E+00  0.104E+00
  -6.753  0.113E+00  0.113E+00
  -6.738  0.123E+00  0.123E+00
  -6.723  0.133E+00  0.133E+00
  -6.708  0.144E+00  0.144E+00
  -6.693  0.155E+00  0.155E+00
  -6.678  0.168E+00  0.168E+00
  -6.663  0.180E+00  0.180E+00
  -6.648  0.193E+00  0.193E+00
  -6.633  0.207E+00  0.207E+00
  -6.618  0.221E+00  0.221E+00
  -6.603  0.235E+00  0.235E+00
  -6.588  0.249E+00  0.249E+00
  -6.573  0.262E+00  0.262E+00
  -6.558  0.276E+00  0.276E+00
  -6.543  0.289E+00  0.289E+00
  -6.528  0.302E+00  0.302E+00
  -6.513  0.314E+00  0.314E+00
  -6.498  0.325E+00  0.325E+00
  -6.483  0.336E+00  0.336E+00
  -6.468  0.345E+00  0.345E+00
  -6.453  0.353E+00  0.353E+00
  -6.438  0.360E+00  0.360E+00
  -6.423  0.366E+00  0.366E+00
  -6.408  0.371E+00  0.371E+00
  -6.393  0.374E+00  0.374E+00
  -6.378  0.377E+00  0.377E+00
  -6.363  0.378E+00  0.378E+00
  -6.348  0.378E+00  0.378E+00
  -6.333  0.377E+00  0.377E+00
  -6.318  0.375E+00  0.375E+00
  -6.303  0.373E+00  0.373E+00
  -6.288  0.370E+00  0.370E+00
  -6.273  0.366E+00  0.366E+00
  -6.258  0.363E+00  0.363E+00
  -6.243  0.359E+00  0.359E+00
  -6.228  0.356E+00  0.356E+00
  -6.213  0.353E+00  0.353E+00
  -6.198  0.350E+00  0.350E+00
  -6.183  0.348E+00  0.348E+00
  -6.168  0.347E+00  0.347E+00
  -6.153  0.347E+00  0.347E+00
  -6.138  0.347E+00  0.347E+00
  -6.123  0.349E+00  0.349E+00
  -6.108  0.351E+00  0.351E+00
  -6.093  0.354E+00  0.354E+00
  -6.078  0.358E+00  0.358E+00
  -6.063  0.363E+00  0.363E+00
  -6.048  0.368E+00  0.368E+00
  -6.033  0.374E+00  0.374E+00
  -6.018  0.380E+00  0.380E+00
  -6.003  0.387E+00  0.387E+00
  -5.988  0.393E+00  0.393E+00
  -5.973  0.399E+00  0.399E+00
  -5.958  0.404E+00  0.404E+00
  -5.943  0.409E+00  0.409E+00
  -5.928  0.412E+00  0.412E+00
  -5.913  0.415E+00  0.415E+00
  -5.898  0.416E+00  0.416E+00
  -5.883  0.416E+00  0.416E+00
  -5.868  0.414E+00  0.414E+00
  -5.853  0.411E+00  0.411E+00
  -5.838  0.406E+00  0.406E+00
  -5.823  0.399E+00  0.399E+00
  -5.808  0.390E+00  0.390E+00
  -5.793  0.380E+00  0.380E+00
  -5.778  0.368E+00  0.368E+00
  -5.763  0.355E+00  0.355E+00
  -5.748  0.341E+00  0.341E+00
  -5.733  0.325E+00  0.325E+00
  -5.718  0.309E+00  0.309E+00
  -5.703  0.292E+00  0.292E+00
  -5.688  0.274E+00  0.274E+00
  -5.673  0.256E+00  0.256E+00
  -5.658  0.238E+00  0.238E+00
  -5.643  0.220E+00  0.220E+00
  -5.628  0.202E+00  0.202E+00
  -5.613  0.184E+00  0.184E+00
  -5.598  0.167E+00  0.167E+00
  -5.583  0.151E+00  0.151E+00
  -5.568  0.136E+00  0.136E+00
  -5.553  0.121E+00  0.121E+00
  -5.538  0.108E+00  0.108E+00
  -5.523  0.950E-01  0.950E-01
  -5.508  0.833E-01  0.833E-01
  -5.493  0.727E-01  0.727E-01
  -5.478  0.630E-01  0.630E-01
  -5.463  0.543E-01  0.543E-01
  -5.448  0.466E-01  0.466E-01
  -5.433  0.397E-01  0.397E-01
  -5.418  0.336E-01  0.336E-01
  -5.403  0.283E-01  0.283E-01
  -5.388  0.237E-01  0.237E-01
  -5.373  0.197E-01  0.197E-01
  -5.358  0.163E-01  0.163E-01
  -5.343  0.134E-01  0.134E-01
  -5.328  0.110E-01  0.110E-01
  -5.313  0.891E-02  0.891E-02
  -5.298  0.720E-02  0.720E-02
  -5.283  0.578E-02  0.578E-02
  -5.268  0.461E-02  0.461E-02
  -5.253  0.366E-02  0.366E-02
  -5.238  0.289E-02  0.289E-02
  -5.223  0.226E-02  0.226E-02
  -5.208  0.176E-02  0.176E-02
  -5.193  0.137E-02  0.137E-02
  -5.178  0.105E-02  0.105E-02
  -5.163  0.805E-03  0.805E-03
  -5.148  0.613E-03  0.613E-03
  -5.133  0.463E-03  0.463E-03
  -5.118  0.348E-03  0.348E-03
  -5.103  0.260E-03  0.260E-03
  -5.088  0.193E-03  0.193E-03
  -5.073  0.143E-03  0.143E-03
  -5.058  0.105E-03  0.105E-03
  -5.043  0.764E-04  0.764E-04
  -5.028  0.554E-04  0.554E-04
  -5.013  0.399E-04  0.399E-04
  -4.998  0.286E-04  0.286E-04
  -4.983  0.204E-04  0.204E-04
  -4.968  0.144E-04  0.144E-04
  -4.953  0.101E-04  0.101E-04
  -4.938  0.710E-05  0.710E-05
  -4.923  0.493E-05  0.493E-05
  -4.908  0.341E-05  0.341E-05
  -4.893  0.234E-05  0.234E-05
  -4.878  0.160E-05  0.160E-05
  -4.863  0.108E-05  0.108E-05
  -4.848  0.732E-06  0.732E-06
  -4.833  0.490E-06  0.490E-06
  -4.818  0.327E-06  0.327E-06
  -4.803  0.217E-06  0.217E-06
  -4.788  0.143E-06  0.143E-06
  -4.773  0.933E-07  0.933E-07
  -4.758  0.607E-07  0.607E-07
  -4.743  0.392E-07  0.392E-07
  -4.728  0.252E-07  0.252E-07
  -4.713  0.161E-07  0.161E-07
  -4.698  0.102E-07  0.102E-07
  -4.683  0.645E-08  0.645E-08
  -4.668  0.405E-08  0.405E-08
  -4.653  0.252E-08  0.252E-08
  -4.638  0.156E-08  0.156E-08
  -4.623  0.964E-09  0.964E-09
  -4.608  0.590E-09  0.590E-09
  -4.593  0.359E-09  0.359E-09
  -4.578  0.217E-09  0.217E-09
  -4.563  0.130E-09  0.130E-09
  -4.548  0.779E-10  0.779E-10
  -4.533  0.462E-10  0.462E-10
  -4.518  0.272E-10  0.272E-10
  -4.503  0.159E-10  0.159E-10
  -4.488  0.919E-11  0.919E-11
  -4.473  0.523E-11  0.523E-11
  -4.458  0.258E-11  0.258E-11
  -4.443  0.000E+00  0.000E+00
  -4.428  0.000E+00  0.000E+00
  -4.413  0.000E+00  0.000E+00
  -4.398  0.000E+00  0.000E+00
  -4.383  0.000E+00  0.000E+00
  -4.368  0.000E+00  0.000E+00
  -4.353  0.000E+00  0.000E+00
  -4.338  0.000E+00  0.000E+00
  -4.323  0.000E+00  0.000E+00
  -4.308  0.000E+00  0.000E+00
  -4.293  0.000E+00  0.000E+00
  -4.278  0.000E+00  0.000E+00
  -4.263  0.000E+00  0.000E+00
  -4.248  0.000E+00  0.000E+00
  -4.233  0.000E+00  0.000E+00
  -4.218  0.000E+00  0.000E+00
  -4.203  0.000E+00  0.000E+00
  -4.188  0.000E+00  0.000E+00
  -4.173  0.000E+00  0.000E+00
  -4.158  0.000E+00  0.000E+00
  -4.143  0.000E+00  0.000E+00
  -4.128  0.000E+00  0.000E+00
  -4.113  0.000E+00  0.000E+00
  -4.098  0.000E+00  0.000E+00
  -4.083  0.000E+00  0.000E+00
  -4.068  0.000E+00  0.000E+00
  -4.053  0.000E+00  0.000E+00
  -4.038  0.000E+00  0.000E+00
  -4.023  0.000E+00  0.000E+00
  -4.008  0.000E+00  0.000E+00
  -3.993  0.000E+00  0.000E+00
  -3.978  0.000E+00  0.000E+00
  -3.963  0.000E+00  0.000E+00
  -3.948  0.000E+00  0.000E+00
  -3.933  0.000E+00  0.000E+00
  -3.918  0.000E+00  0.000E+00
  -3.903  0.000E+00  0.000E+00
  -3.888  0.000E+00  0.000E+00
  -3.873  0.000E+00  0.000E+00
  -3.858  0.000E+00  0.000E+00
  -3.843  0.000E+00  0.000E+00
  -3.828  0.000E+00  0.000E+00
  -3.813  0.000E+00  0.000E+00
  -3.798  0.000E+00  0.000E+00
  -3.783  0.000E+00  0.000E+00
  -3.768  0.000E+00  0.000E+00
  -3.753  0.000E+00  0.000E+00
  -3.738  0.000E+00  0.000E+00
  -3.723  0.000E+00  0.000E+00
  -3.708  0.000E+00  0.000E+00
  -3.693  0.000E+00  0.000E+00
  -3.678  0.000E+00  0.000E+00
  -3.663  0.000E+00  0.000E+00
  -3.648  0.000E+00  0.000E+00
  -3.633  0.000E+00  0.000E+00
  -3.618  0.000E+00  0.000E+00
  -3.603  0.000E+00  0.000E+00
  -3.588  0.000E+00  0.000E+00
  -3.573  0.000E+00  0.000E+00
  -3.558  0.000E+00  0.000E+00
  -3.543  0.000E+00  0.000E+00
  -3.528  0.000E+00  0.000E+00
  -3.513  0.000E+00  0.000E+00
  -3.498  0.000E+00  0.000E+00
  -3.483  0.000E+00  0.000E+00
  -3.468  0.000E+00  0.000E+00
  -3.453  0.000E+00  0.000E+00
  -3.438  0.000E+00  0.000E+00
  -3.423  0.000E+00  0.000E+00
  -3.408  0.000E+00  0.000E+00
  -3.393  0.000E+00  0.000E+00
  -3.378  0.000E+00  0.000E+00
  -3.363  0.000E+00  0.000E+00
  -3.348  0.000E+00  0.000E+00
  -3.333  0.000E+00  0.000E+00
  -3.318  0.000E+00  0.000E+00
  -3.303  0.000E+00  0.000E+00
  -3.288  0.000E+00  0.000E+00
  -3.273  0.000E+00  0.000E+00
  -3.258  0.000E+00  0.000E+00
  -3.243  0.000E+00  0.000E+00
  -3.228  0.000E+00  0.000E+00
  -3.213  0.000E+00  0.000E+00
  -3.198  0.000E+00  0.000E+00
  -3.183  0.000E+00  0.000E+00
  -3.168  0.000E+00  0.000E+00
  -3.153  0.000E+00  0.000E+00
  -3.138  0.000E+00  0.000E+00
  -3.123  0.000E+00  0.000E+00
  -3.108  0.000E+00  0.000E+00
  -3.093  0.000E+00  0.000E+00
  -3.078  0.000E+00  0.000E+00
  -3.063  0.000E+00  0.000E+00
  -3.048  0.000E+00  0.000E+00
  -3.033  0.000E+00  0.000E+00
  -3.018  0.000E+00  0.000E+00
  -3.003  0.000E+00  0.000E+00
  -2.988  0.000E+00  0.000E+00
  -2.973  0.000E+00  0.000E+00
  -2.958  0.000E+00  0.000E+00
  -2.943  0.000E+00  0.000E+00
  -2.928  0.000E+00  0.000E+00
  -2.913  0.000E+00  0.000E+00
  -2.898  0.000E+00  0.000E+00
  -2.883  0.000E+00  0.000E+00
  -2.868  0.000E+00  0.000E+00
  -2.853  0.000E+00  0.000E+00
  -2.838  0.000E+00  0.000E+00
  -2.823  0.000E+00  0.000E+00
  -2.808  0.000E+00  0.000E+00
  -2.793  0.000E+00  0.000E+00
  -2.778  0.000E+00  0.000E+00
  -2.763  0.000E+00  0.000E+00
  -2.748  0.000E+00  0.000E+00
  -2.733  0.000E+00  0.000E+00
  -2.718  0.000E+00  0.000E+00
  -2.703  0.000E+00  0.000E+00
  -2.688  0.000E+00  0.000E+00
  -2.673  0.000E+00  0.000E+00
  -2.658  0.000E+00  0.000E+00
  -2.643  0.000E+00  0.000E+00
  -2.628  0.000E+00  0.000E+00
  -2.613  0.000E+00  0.000E+00
  -2.598  0.000E+00  0.000E+00
  -2.583  0.000E+00  0.000E+00
  -2.568  0.000E+00  0.000E+00
  -2.553  0.000E+00  0.000E+00
  -2.538  0.000E+00  0.000E+00
  -2.523  0.000E+00  0.000E+00
  -2.508  0.000E+00  0.000E+00
  -2.493  0.000E+00  0.000E+00
  -2.478  0.000E+00  0.000E+00
  -2.463  0.000E+00  0.000E+00
  -2.448  0.000E+00  0.000E+00
  -2.433  0.000E+00  0.000E+00
  -2.418  0.000E+00  0.000E+00
  -2.403  0.000E+00  0.000E+00
  -2.388  0.000E+00  0.000E+00
  -2.373  0.000E+00  0.000E+00
  -2.358  0.000E+00  0.000E+00
  -2.343  0.000E+00  0.000E+00
  -2.328  0.000E+00  0.000E+00
  -2.313  0.000E+00  0.000E+00
  -2.298  0.000E+00  0.000E+00
  -2.283  0.000E+00  0.000E+00
  -2.268  0.000E+00  0.000E+00
  -2.253  0.000E+00  0.000E+00
  -2.238  0.000E+00  0.000E+00
  -2.223  0.000E+00  0.000E+00
  -2.208  0.000E+00  0.000E+00
  -2.193  0.000E+00  0.000E+00
  -2.178  0.000E+00  0.000E+00
  -2.163  0.000E+00  0.000E+00
  -2.148  0.000E+00  0.000E+00
  -2.133  0.000E+00  0.000E+00
  -2.118  0.000E+00  0.000E+00
  -2.103  0.000E+00  0.000E+00
  -2.088  0.000E+00  0.000E+00
  -2.073  0.000E+00  0.000E+00
  -2.058  0.000E+00  0.000E+00
  -2.043  0.000E+00  0.000E+00
  -2.028  0.000E+00  0.000E+00
  -2.013  0.000E+00  0.000E+00
  -1.998  0.000E+00  0.000E+00
  -1.983  0.000E+00  0.000E+00
  -1.968  0.000E+00  0.000E+00
  -1.953  0.000E+00  0.000E+00
  -1.938  0.000E+00  0.000E+00
  -1.923  0.000E+00  0.000E+00
  -1.908  0.000E+00  0.000E+00
  -1.893  0.000E+00  0.000E+00
  -1.878  0.000E+00  0.000E+00
  -1.863  0.000E+00  0.000E+00
  -1.848  0.000E+00  0.000E+00
  -1.833  0.000E+00  0.000E+00
  -1.818  0.000E+00  0.000E+00
  -1.803  0.000E+00  0.000E+00
  -1.788  0.000E+00  0.000E+00
  -1.773  0.000E+00  0.000E+00
  -1.758  0.000E+00  0.000E+00
  -1.743  0.000E+00  0.000E+00
  -1.728  0.000E+00  0.000E+00
  -1.713  0.000E+00  0.000E+00
  -1.698  0.000E+00  0.000E+00
  -1.683  0.000E+00  0.000E+00
  -1.668  0.000E+00  0.000E+00
  -1.653  0.000E+00  0.000E+00
  -1.638  0.000E+00  0.000E+00
  -1.623  0.000E+00  0.000E+00
  -1.608  0.000E+00  0.000E+00
  -1.593  0.000E+00  0.000E+00
  -1.578  0.000E+00  0.000E+00
  -1.563  0.000E+00  0.000E+00
  -1.548  0.000E+00  0.000E+00
  -1.533  0.000E+00  0.000E+00
  -1.518  0.000E+00  0.000E+00
  -1.503  0.000E+00  0.000E+00
  -1.488  0.250E-16  0.250E-16
  -1.473  0.165E-15  0.165E-15
  -1.458  0.286E-15  0.286E-15
  -1.443  0.862E-15  0.862E-15
  -1.428  0.148E-14  0.148E-14
  -1.413  0.304E-14  0.304E-14
  -1.398  0.530E-14  0.530E-14
  -1.383  0.900E-14  0.900E-14
  -1.368  0.161E-13  0.161E-13
  -1.353  0.270E-13  0.270E-13
  -1.338  0.451E-13  0.451E-13
  -1.323  0.762E-13  0.762E-13
  -1.308  0.126E-12  0.126E-12
  -1.293  0.207E-12  0.207E-12
  -1.278  0.337E-12  0.337E-12
  -1.263  0.549E-12  0.549E-12
  -1.248  0.886E-12  0.886E-12
  -1.233  0.142E-11  0.142E-11
  -1.218  0.227E-11  0.227E-11
  -1.203  0.360E-11  0.360E-11
  -1.188  0.567E-11  0.567E-11
  -1.173  0.889E-11  0.889E-11
  -1.158  0.139E-10  0.139E-10
  -1.143  0.215E-10  0.215E-10
  -1.128  0.331E-10  0.331E-10
  -1.113  0.506E-10  0.506E-10
  -1.098  0.771E-10  0.771E-10
  -1.083  0.117E-09  0.117E-09
  -1.068  0.176E-09  0.176E-09
  -1.053  0.263E-09  0.263E-09
  -1.038  0.391E-09  0.391E-09
  -1.023  0.578E-09  0.578E-09
  -1.008  0.850E-09  0.850E-09
  -0.993  0.124E-08  0.124E-08
  -0.978  0.181E-08  0.181E-08
  -0.963  0.261E-08  0.261E-08
  -0.948  0.375E-08  0.375E-08
  -0.933  0.536E-08  0.536E-08
  -0.918  0.762E-08  0.762E-08
  -0.903  0.108E-07  0.108E-07
  -0.888  0.151E-07  0.151E-07
  -0.873  0.211E-07  0.211E-07
  -0.858  0.293E-07  0.293E-07
  -0.843  0.405E-07  0.405E-07
  -0.828  0.556E-07  0.556E-07
  -0.813  0.759E-07  0.759E-07
  -0.798  0.103E-06  0.103E-06
  -0.783  0.139E-06  0.139E-06
  -0.768  0.187E-06  0.187E-06
  -0.753  0.250E-06  0.250E-06
  -0.738  0.332E-06  0.332E-06
  -0.723  0.438E-06  0.438E-06
  -0.708  0.576E-06  0.576E-06
  -0.693  0.752E-06  0.752E-06
  -0.678  0.977E-06  0.977E-06
  -0.663  0.126E-05  0.126E-05
  -0.648  0.162E-05  0.162E-05
  -0.633  0.207E-05  0.207E-05
  -0.618  0.264E-05  0.264E-05
  -0.603  0.334E-05  0.334E-05
  -0.588  0.420E-05  0.420E-05
  -0.573  0.525E-05  0.525E-05
  -0.558  0.654E-05  0.654E-05
  -0.543  0.809E-05  0.809E-05
  -0.528  0.997E-05  0.997E-05
  -0.513  0.122E-04  0.122E-04
  -0.498  0.149E-04  0.149E-04
  -0.483  0.181E-04  0.181E-04
  -0.468  0.218E-04  0.218E-04
  -0.453  0.262E-04  0.262E-04
  -0.438  0.314E-04  0.314E-04
  -0.423  0.373E-04  0.373E-04
  -0.408  0.442E-04  0.442E-04
  -0.393  0.521E-04  0.521E-04
  -0.378  0.611E-04  0.611E-04
  -0.363  0.713E-04  0.713E-04
  -0.348  0.829E-04  0.829E-04
  -0.333  0.960E-04  0.960E-04
  -0.318  0.111E-03  0.111E-03
  -0.303  0.127E-03  0.127E-03
  -0.288  0.145E-03  0.145E-03
  -0.273  0.165E-03  0.165E-03
  -0.258  0.188E-03  0.188E-03
  -0.243  0.212E-03  0.212E-03
  -0.228  0.239E-03  0.239E-03
  -0.213  0.268E-03  0.268E-03
  -0.198  0.300E-03  0.300E-03
  -0.183  0.335E-03  0.335E-03
  -0.168  0.372E-03  0.372E-03
  -0.153  0.413E-03  0.413E-03
  -0.138  0.457E-03  0.457E-03
  -0.123  0.505E-03  0.505E-03
  -0.108  0.557E-03  0.557E-03
  -0.093  0.612E-03  0.612E-03
  -0.078  0.672E-03  0.672E-03
  -0.063  0.737E-03  0.737E-03
  -0.048  0.806E-03  0.806E-03
  -0.033  0.882E-03  0.882E-03
  -0.018  0.963E-03  0.963E-03
  -0.003  0.105E-02  0.105E-02
   0.012  0.115E-02  0.115E-02
   0.027  0.125E-02  0.125E-02
   0.042  0.136E-02  0.136E-02
   0.057  0.148E-02  0.148E-02
   0.072  0.161E-02  0.161E-02
   0.087  0.175E-02  0.175E-02
   0.102  0.189E-02  0.189E-02
   0.117  0.205E-02  0.205E-02
   0.132  0.223E-02  0.223E-02
   0.147  0.241E-02  0.241E-02
   0.162  0.261E-02  0.261E-02
   0.177  0.282E-02  0.282E-02
   0.192  0.304E-02  0.304E-02
   0.207  0.328E-02  0.328E-02
   0.222  0.353E-02  0.353E-02
   0.237  0.379E-02  0.379E-02
   0.252  0.407E-02  0.407E-02
   0.267  0.435E-02  0.435E-02
   0.282  0.465E-02  0.465E-02
   0.297  0.496E-02  0.496E-02
   0.312  0.528E-02  0.528E-02
   0.327  0.561E-02  0.561E-02
   0.342  0.594E-02  0.594E-02
   0.357  0.628E-02  0.628E-02
   0.372  0.663E-02  0.663E-02
   0.387  0.698E-02  0.698E-02
   0.402  0.733E-02  0.733E-02
   0.417  0.768E-02  0.768E-02
   0.432  0.803E-02  0.803E-02
   0.447  0.837E-02  0.837E-02
   0.462  0.871E-02  0.871E-02
   0.477  0.905E-02  0.905E-02
   0.492  0.938E-02  0.938E-02
   0.507  0.971E-02  0.971E-02
   0.522  0.100E-01  0.100E-01
   0.537  0.103E-01  0.103E-01
   0.552  0.106E-01  0.106E-01
   0.567  0.109E-01  0.109E-01
   0.582  0.112E-01  0.112E-01
   0.597  0.115E-01  0.115E-01
   0.612  0.117E-01  0.117E-01
   0.627  0.120E-01  0.120E-01
   0.642  0.122E-01  0.122E-01
   0.657  0.125E-01  0.125E-01
   0.672  0.127E-01  0.127E-01
   0.687  0.130E-01  0.130E-01
   0.702  0.132E-01  0.132E-01
   0.717  0.134E-01  0.134E-01
   0.732  0.136E-01  0.136E-01
   0.747  0.139E-01  0.139E-01
   0.762  0.141E-01  0.141E-01
   0.777  0.143E-01  0.143E-01
   0.792  0.145E-01  0.145E-01
   0.807  0.147E-01  0.147E-01
   0.822  0.149E-01  0.149E-01
   0.837  0.152E-01  0.152E-01
   0.852  0.154E-01  0.154E-01
   0.867  0.155E-01  0.155E-01
   0.882  0.157E-01  0.157E-01
   0.897  0.159E-01  0.159E-01
   0.912  0.161E-01  0.161E-01
   0.927  0.162E-01  0.162E-01
   0.942  0.163E-01  0.163E-01
   0.957  0.165E-01  0.165E-01
   0.972  0.165E-01  0.165E-01
   0.987  0.166E-01  0.166E-01
   1.002  0.166E-01  0.166E-01
   1.017  0.167E-01  0.167E-01
   1.032  0.166E-01  0.166E-01
   1.047  0.166E-01  0.166E-01
   1.062  0.165E-01  0.165E-01
   1.077  0.164E-01  0.164E-01
   1.092  0.163E-01  0.163E-01
   1.107  0.161E-01  0.161E-01
   1.122  0.159E-01  0.159E-01
   1.137  0.157E-01  0.157E-01
   1.152  0.154E-01  0.154E-01
   1.167  0.152E-01  0.152E-01
   1.182  0.149E-01  0.149E-01
   1.197  0.146E-01  0.146E-01
   1.212  0.143E-01  0.143E-01
   1.227  0.139E-01  0.139E-01
   1.242  0.136E-01  0.136E-01
   1.257  0.133E-01  0.133E-01
   1.272  0.130E-01  0.130E-01
   1.287  0.127E-01  0.127E-01
   1.302  0.124E-01  0.124E-01
   1.317  0.121E-01  0.121E-01
   1.332  0.118E-01  0.118E-01
   1.347  0.116E-01  0.116E-01
   1.362  0.114E-01  0.114E-01
   1.377  0.113E-01  0.113E-01
   1.392  0.111E-01  0.111E-01
   1.407  0.111E-01  0.111E-01
   1.422  0.110E-01  0.110E-01
   1.437  0.110E-01  0.110E-01
   1.452  0.111E-01  0.111E-01
   1.467  0.112E-01  0.112E-01
   1.482  0.113E-01  0.113E-01
   1.497  0.115E-01  0.115E-01
   1.512  0.118E-01  0.118E-01
   1.527  0.121E-01  0.121E-01
   1.542  0.125E-01  0.125E-01
   1.557  0.129E-01  0.129E-01
   1.572  0.134E-01  0.134E-01
   1.587  0.139E-01  0.139E-01
   1.602  0.145E-01  0.145E-01
   1.617  0.152E-01  0.152E-01
   1.632  0.159E-01  0.159E-01
   1.647  0.166E-01  0.166E-01
   1.662  0.174E-01  0.174E-01
   1.677  0.182E-01  0.182E-01
   1.692  0.190E-01  0.190E-01
   1.707  0.199E-01  0.199E-01
   1.722  0.208E-01  0.208E-01
   1.737  0.217E-01  0.217E-01
   1.752  0.227E-01  0.227E-01
   1.767  0.236E-01  0.236E-01
   1.782  0.245E-01  0.245E-01
   1.797  0.254E-01  0.254E-01
   1.812  0.263E-01  0.263E-01
   1.827  0.272E-01  0.272E-01
   1.842  0.280E-01  0.280E-01
   1.857  0.289E-01  0.289E-01
   1.872  0.296E-01  0.296E-01
   1.887  0.304E-01  0.304E-01
   1.902  0.310E-01  0.310E-01
   1.917  0.317E-01  0.317E-01
   1.932  0.323E-01  0.323E-01
   1.947  0.328E-01  0.328E-01
   1.962  0.333E-01  0.333E-01
   1.977  0.337E-01  0.337E-01
   1.992  0.341E-01  0.341E-01
   2.007  0.344E-01  0.344E-01
   2.022  0.346E-01  0.346E-01
   2.037  0.348E-01  0.348E-01
   2.052  0.350E-01  0.350E-01
   2.067  0.350E-01  0.350E-01
   2.082  0.351E-01  0.351E-01
   2.097  0.351E-01  0.351E-01
   2.112  0.350E-01  0.350E-01
   2.127  0.349E-01  0.349E-01
   2.142  0.348E-01  0.348E-01
   2.157  0.346E-01  0.346E-01
   2.172  0.344E-01  0.344E-01
   2.187  0.342E-01  0.342E-01
   2.202  0.339E-01  0.339E-01
   2.217  0.336E-01  0.336E-01
   2.232  0.332E-01  0.332E-01
   2.247  0.328E-01  0.328E-01
   2.262  0.324E-01  0.324E-01
   2.277  0.320E-01  0.320E-01
   2.292  0.315E-01  0.315E-01
   2.307  0.310E-01  0.310E-01
   2.322  0.305E-01  0.305E-01
   2.337  0.299E-01  0.299E-01
   2.352  0.294E-01  0.294E-01
   2.367  0.288E-01  0.288E-01
   2.382  0.281E-01  0.281E-01
   2.397  0.275E-01  0.275E-01
   2.412  0.269E-01  0.269E-01
   2.427  0.262E-01  0.262E-01
   2.442  0.255E-01  0.255E-01
   2.457  0.248E-01  0.248E-01
   2.472  0.242E-01  0.242E-01
   2.487  0.235E-01  0.235E-01
   2.502  0.228E-01  0.228E-01
   2.517  0.222E-01  0.222E-01
   2.532  0.215E-01  0.215E-01
   2.547  0.209E-01  0.209E-01
   2.562  0.203E-01  0.203E-01
   2.577  0.197E-01  0.197E-01
   2.592  0.191E-01  0.191E-01
   2.607  0.186E-01  0.186E-01
   2.622  0.181E-01  0.181E-01
   2.637  0.176E-01  0.176E-01
   2.652  0.172E-01  0.172E-01
   2.667  0.168E-01  0.168E-01
   2.682  0.164E-01  0.164E-01
   2.697  0.161E-01  0.161E-01
   2.712  0.158E-01  0.158E-01
   2.727  0.155E-01  0.155E-01
   2.742  0.153E-01  0.153E-01
   2.757  0.151E-01  0.151E-01
   2.772  0.150E-01  0.150E-01
   2.787  0.148E-01  0.148E-01
   2.802  0.147E-01  0.147E-01
   2.817  0.146E-01  0.146E-01
   2.832  0.146E-01  0.146E-01
   2.847  0.145E-01  0.145E-01
   2.862  0.145E-01  0.145E-01
   2.877  0.145E-01  0.145E-01
   2.892  0.145E-01  0.145E-01
   2.907  0.145E-01  0.145E-01
   2.922  0.145E-01  0.145E-01
   2.937  0.146E-01  0.146E-01
   2.952  0.146E-01  0.146E-01
   2.967  0.147E-01  0.147E-01
   2.982  0.148E-01  0.148E-01
   2.997  0.149E-01  0.149E-01
   3.012  0.150E-01  0.150E-01
   3.027  0.150E-01  0.150E-01
   3.042  0.151E-01  0.151E-01
   3.057  0.152E-01  0.152E-01
   3.072  0.154E-01  0.154E-01
   3.087  0.155E-01  0.155E-01
   3.102  0.156E-01  0.156E-01
   3.117  0.157E-01  0.157E-01
   3.132  0.158E-01  0.158E-01
   3.147  0.160E-01  0.160E-01
   3.162  0.161E-01  0.161E-01
   3.177  0.162E-01  0.162E-01
   3.192  0.164E-01  0.164E-01
   3.207  0.165E-01  0.165E-01
   3.222  0.167E-01  0.167E-01
   3.237  0.168E-01  0.168E-01
   3.252  0.170E-01  0.170E-01
   3.267  0.172E-01  0.172E-01
   3.282  0.173E-01  0.173E-01
   3.297  0.175E-01  0.175E-01
   3.312  0.177E-01  0.177E-01
   3.327  0.179E-01  0.179E-01
   3.342  0.181E-01  0.181E-01
   3.357  0.183E-01  0.183E-01
   3.372  0.185E-01  0.185E-01
   3.387  0.187E-01  0.187E-01
   3.402  0.190E-01  0.190E-01
   3.417  0.192E-01  0.192E-01
   3.432  0.195E-01  0.195E-01
   3.447  0.198E-01  0.198E-01
   3.462  0.200E-01  0.200E-01
   3.477  0.203E-01  0.203E-01
   3.492  0.207E-01  0.207E-01
   3.507  0.210E-01  0.210E-01
   3.522  0.214E-01  0.214E-01
   3.537  0.217E-01  0.217E-01
   3.552  0.221E-01  0.221E-01
   3.567  0.226E-01  0.226E-01
   3.582  0.230E-01  0.230E-01
   3.597  0.235E-01  0.235E-01
   3.612  0.240E-01  0.240E-01
   3.627  0.245E-01  0.245E-01
   3.642  0.250E-01  0.250E-01
   3.657  0.256E-01  0.256E-01
   3.672  0.262E-01  0.262E-01
   3.687  0.268E-01  0.268E-01
   3.702  0.275E-01  0.275E-01
   3.717  0.281E-01  0.281E-01
   3.732  0.288E-01  0.288E-01
   3.747  0.295E-01  0.295E-01
   3.762  0.302E-01  0.302E-01
   3.777  0.309E-01  0.309E-01
   3.792  0.317E-01  0.317E-01
   3.807  0.324E-01  0.324E-01
   3.822  0.330E-01  0.330E-01
   3.837  0.337E-01  0.337E-01
   3.852  0.343E-01  0.343E-01
   3.867  0.349E-01  0.349E-01
   3.882  0.354E-01  0.354E-01
   3.897  0.359E-01  0.359E-01
   3.912  0.363E-01  0.363E-01
   3.927  0.366E-01  0.366E-01
   3.942  0.369E-01  0.369E-01
   3.957  0.370E-01  0.370E-01
   3.972  0.370E-01  0.370E-01
   3.987  0.370E-01  0.370E-01
   4.002  0.368E-01  0.368E-01
   4.017  0.365E-01  0.365E-01
   4.032  0.362E-01  0.362E-01
   4.047  0.357E-01  0.357E-01
   4.062  0.351E-01  0.351E-01
   4.077  0.344E-01  0.344E-01
   4.092  0.336E-01  0.336E-01
   4.107  0.328E-01  0.328E-01
   4.122  0.319E-01  0.319E-01
   4.137  0.309E-01  0.309E-01
   4.152  0.299E-01  0.299E-01
   4.167  0.288E-01  0.288E-01
   4.182  0.277E-01  0.277E-01
   4.197  0.266E-01  0.266E-01
   4.212  0.255E-01  0.255E-01
   4.227  0.244E-01  0.244E-01
   4.242  0.233E-01  0.233E-01
   4.257  0.223E-01  0.223E-01
   4.272  0.212E-01  0.212E-01
   4.287  0.203E-01  0.203E-01
   4.302  0.193E-01  0.193E-01
   4.317  0.184E-01  0.184E-01
   4.332  0.176E-01  0.176E-01
   4.347  0.168E-01  0.168E-01
   4.362  0.161E-01  0.161E-01
   4.377  0.154E-01  0.154E-01
   4.392  0.148E-01  0.148E-01
   4.407  0.143E-01  0.143E-01
   4.422  0.138E-01  0.138E-01
   4.437  0.133E-01  0.133E-01
   4.452  0.129E-01  0.129E-01
   4.467  0.125E-01  0.125E-01
   4.482  0.122E-01  0.122E-01
   4.497  0.119E-01  0.119E-01
   4.512  0.116E-01  0.116E-01
   4.527  0.114E-01  0.114E-01
   4.542  0.112E-01  0.112E-01
   4.557  0.110E-01  0.110E-01
   4.572  0.108E-01  0.108E-01
   4.587  0.107E-01  0.107E-01
   4.602  0.105E-01  0.105E-01
   4.617  0.104E-01  0.104E-01
   4.632  0.102E-01  0.102E-01
   4.647  0.101E-01  0.101E-01
   4.662  0.997E-02  0.997E-02
   4.677  0.984E-02  0.984E-02
   4.692  0.971E-02  0.971E-02
   4.707  0.957E-02  0.957E-02
   4.722  0.942E-02  0.942E-02
   4.737  0.927E-02  0.927E-02
   4.752  0.911E-02  0.911E-02
   4.767  0.894E-02  0.894E-02
   4.782  0.877E-02  0.877E-02
   4.797  0.859E-02  0.859E-02
   4.812  0.840E-02  0.840E-02
   4.827  0.820E-02  0.820E-02
   4.842  0.800E-02  0.800E-02
   4.857  0.779E-02  0.779E-02
   4.872  0.758E-02  0.758E-02
   4.887  0.737E-02  0.737E-02
   4.902  0.716E-02  0.716E-02
   4.917  0.694E-02  0.694E-02
   4.932  0.673E-02  0.673E-02
   4.947  0.653E-02  0.653E-02
   4.962  0.632E-02  0.632E-02
   4.977  0.613E-02  0.613E-02
   4.992  0.594E-02  0.594E-02
   5.007  0.576E-02  0.576E-02
   5.022  0.558E-02  0.558E-02
   5.037  0.542E-02  0.542E-02
   5.052  0.527E-02  0.527E-02
   5.067  0.513E-02  0.513E-02
   5.082  0.500E-02  0.500E-02
   5.097  0.487E-02  0.487E-02
   5.112  0.477E-02  0.477E-02
   5.127  0.467E-02  0.467E-02
   5.142  0.458E-02  0.458E-02
   5.157  0.450E-02  0.450E-02
   5.172  0.443E-02  0.443E-02
   5.187  0.437E-02  0.437E-02
   5.202  0.431E-02  0.431E-02
   5.217  0.426E-02  0.426E-02
   5.232  0.422E-02  0.422E-02
   5.247  0.419E-02  0.419E-02
   5.262  0.416E-02  0.416E-02
   5.277  0.413E-02  0.413E-02
   5.292  0.411E-02  0.411E-02
   5.307  0.409E-02  0.409E-02
   5.322  0.407E-02  0.407E-02
   5.337  0.405E-02  0.405E-02
   5.352  0.404E-02  0.404E-02
   5.367  0.403E-02  0.403E-02
   5.382  0.401E-02  0.401E-02
   5.397  0.400E-02  0.400E-02
   5.412  0.399E-02  0.399E-02
   5.427  0.398E-02  0.398E-02
   5.442  0.397E-02  0.397E-02
   5.457  0.396E-02  0.396E-02
   5.472  0.395E-02  0.395E-02
   5.487  0.395E-02  0.395E-02
   5.502  0.394E-02  0.394E-02
   5.517  0.393E-02  0.393E-02
   5.532  0.393E-02  0.393E-02
   5.547  0.393E-02  0.393E-02
   5.562  0.393E-02  0.393E-02
   5.577  0.393E-02  0.393E-02
   5.592  0.393E-02  0.393E-02
   5.607  0.394E-02  0.394E-02
   5.622  0.395E-02  0.395E-02
   5.637  0.396E-02  0.396E-02
   5.652  0.397E-02  0.397E-02
   5.667  0.399E-02  0.399E-02
   5.682  0.401E-02  0.401E-02
   5.697  0.403E-02  0.403E-02
   5.712  0.405E-02  0.405E-02
   5.727  0.407E-02  0.407E-02
   5.742  0.410E-02  0.410E-02
   5.757  0.412E-02  0.412E-02
   5.772  0.415E-02  0.415E-02
   5.787  0.418E-02  0.418E-02
   5.802  0.420E-02  0.420E-02
   5.817  0.423E-02  0.423E-02
   5.832  0.426E-02  0.426E-02
   5.847  0.429E-02  0.429E-02
   5.862  0.431E-02  0.431E-02
   5.877  0.434E-02  0.434E-02
   5.892  0.436E-02  0.436E-02
   5.907  0.439E-02  0.439E-02
   5.922  0.441E-02  0.441E-02
   5.937  0.443E-02  0.443E-02
   5.952  0.445E-02  0.445E-02
   5.967  0.447E-02  0.447E-02
   5.982  0.449E-02  0.449E-02
   5.997  0.450E-02  0.450E-02
   6.012  0.452E-02  0.452E-02
   6.027  0.453E-02  0.453E-02
   6.042  0.454E-02  0.454E-02
   6.057  0.455E-02  0.455E-02
   6.072  0.456E-02  0.456E-02
   6.087  0.457E-02  0.457E-02
   6.102  0.458E-02  0.458E-02
   6.117  0.458E-02  0.458E-02
   6.132  0.459E-02  0.459E-02
   6.147  0.459E-02  0.459E-02
   6.162  0.460E-02  0.460E-02
   6.177  0.460E-02  0.460E-02
   6.192  0.460E-02  0.460E-02
   6.207  0.460E-02  0.460E-02
   6.222  0.460E-02  0.460E-02
   6.237  0.459E-02  0.459E-02
   6.252  0.459E-02  0.459E-02
   6.267  0.458E-02  0.458E-02
   6.282  0.457E-02  0.457E-02
   6.297  0.456E-02  0.456E-02
   6.312  0.455E-02  0.455E-02
   6.327  0.454E-02  0.454E-02
   6.342  0.453E-02  0.453E-02
   6.357  0.452E-02  0.452E-02
   6.372  0.450E-02  0.450E-02
   6.387  0.449E-02  0.449E-02
   6.402  0.447E-02  0.447E-02
   6.417  0.445E-02  0.445E-02
   6.432  0.444E-02  0.444E-02
   6.447  0.442E-02  0.442E-02
   6.462  0.440E-02  0.440E-02
   6.477  0.439E-02  0.439E-02
   6.492  0.437E-02  0.437E-02
   6.507  0.435E-02  0.435E-02
   6.522  0.434E-02  0.434E-02
   6.537  0.432E-02  0.432E-02
   6.552  0.430E-02  0.430E-02
   6.567  0.429E-02  0.429E-02
   6.582  0.427E-02  0.427E-02
   6.597  0.426E-02  0.426E-02
   6.612  0.424E-02  0.424E-02
   6.627  0.423E-02  0.423E-02
   6.642  0.421E-02  0.421E-02
   6.657  0.420E-02  0.420E-02
   6.672  0.418E-02  0.418E-02
   6.687  0.417E-02  0.417E-02
   6.702  0.415E-02  0.415E-02
   6.717  0.413E-02  0.413E-02
   6.732  0.411E-02  0.411E-02
   6.747  0.409E-02  0.409E-02
   6.762  0.407E-02  0.407E-02
   6.777  0.404E-02  0.404E-02
   6.792  0.402E-02  0.402E-02
   6.807  0.399E-02  0.399E-02
   6.822  0.396E-02  0.396E-02
   6.837  0.392E-02  0.392E-02
   6.852  0.389E-02  0.389E-02
   6.867  0.385E-02  0.385E-02
   6.882  0.380E-02  0.380E-02
   6.897  0.376E-02  0.376E-02
   6.912  0.371E-02  0.371E-02
   6.927  0.366E-02  0.366E-02
   6.942  0.361E-02  0.361E-02
   6.957  0.355E-02  0.355E-02
   6.972  0.349E-02  0.349E-02
   6.987  0.343E-02  0.343E-02
   7.002  0.336E-02  0.336E-02
   7.017  0.330E-02  0.330E-02
   7.032  0.323E-02  0.323E-02
   7.047  0.316E-02  0.316E-02
   7.062  0.308E-02  0.308E-02
   7.077  0.301E-02  0.301E-02
   7.092  0.293E-02  0.293E-02
   7.107  0.286E-02  0.286E-02
   7.122  0.278E-02  0.278E-02
   7.137  0.270E-02  0.270E-02
   7.152  0.262E-02  0.262E-02
   7.167  0.254E-02  0.254E-02
   7.182  0.246E-02  0.246E-02
   7.197  0.238E-02  0.238E-02
   7.212  0.230E-02  0.230E-02
   7.227  0.222E-02  0.222E-02
   7.242  0.214E-02  0.214E-02
   7.257  0.206E-02  0.206E-02
   7.272  0.198E-02  0.198E-02
   7.287  0.191E-02  0.191E-02
   7.302  0.184E-02  0.184E-02
   7.317  0.177E-02  0.177E-02
   7.332  0.170E-02  0.170E-02
   7.347  0.164E-02  0.164E-02
   7.362  0.158E-02  0.158E-02
   7.377  0.152E-02  0.152E-02
   7.392  0.147E-02  0.147E-02
   7.407  0.142E-02  0.142E-02
   7.422  0.138E-02  0.138E-02
   7.437  0.134E-02  0.134E-02
   7.452  0.131E-02  0.131E-02
   7.467  0.128E-02  0.128E-02
   7.482  0.125E-02  0.125E-02
   7.497  0.124E-02  0.124E-02
   7.512  0.123E-02  0.123E-02
   7.527  0.122E-02  0.122E-02
   7.542  0.122E-02  0.122E-02
   7.557  0.122E-02  0.122E-02
   7.572  0.123E-02  0.123E-02
   7.587  0.124E-02  0.124E-02
   7.602  0.126E-02  0.126E-02
   7.617  0.128E-02  0.128E-02
   7.632  0.131E-02  0.131E-02
   7.647  0.134E-02  0.134E-02
   7.662  0.137E-02  0.137E-02
   7.677  0.141E-02  0.141E-02
   7.692  0.144E-02  0.144E-02
   7.707  0.148E-02  0.148E-02
   7.722  0.152E-02  0.152E-02
   7.737  0.156E-02  0.156E-02
   7.752  0.160E-02  0.160E-02
   7.767  0.164E-02  0.164E-02
   7.782  0.168E-02  0.168E-02
   7.797  0.172E-02  0.172E-02
   7.812  0.176E-02  0.176E-02
   7.827  0.180E-02  0.180E-02
   7.842  0.184E-02  0.184E-02
   7.857  0.187E-02  0.187E-02
   7.872  0.190E-02  0.190E-02
   7.887  0.194E-02  0.194E-02
   7.902  0.197E-02  0.197E-02
   7.917  0.200E-02  0.200E-02
   7.932  0.202E-02  0.202E-02
   7.947  0.205E-02  0.205E-02
   7.962  0.207E-02  0.207E-02
   7.977  0.209E-02  0.209E-02
   7.992  0.211E-02  0.211E-02
   8.007  0.213E-02  0.213E-02
   8.022  0.214E-02  0.214E-02
   8.037  0.215E-02  0.215E-02
   8.052  0.216E-02  0.216E-02
   8.067  0.217E-02  0.217E-02
   8.082  0.217E-02  0.217E-02
   8.097  0.218E-02  0.218E-02
   8.112  0.218E-02  0.218E-02
   8.127  0.217E-02  0.217E-02
   8.142  0.217E-02  0.217E-02
   8.157  0.216E-02  0.216E-02
   8.172  0.214E-02  0.214E-02
   8.187  0.213E-02  0.213E-02
   8.202  0.211E-02  0.211E-02
   8.217  0.208E-02  0.208E-02
   8.232  0.205E-02  0.205E-02
   8.247  0.202E-02  0.202E-02
   8.262  0.199E-02  0.199E-02
   8.277  0.195E-02  0.195E-02
   8.292  0.190E-02  0.190E-02
   8.307  0.185E-02  0.185E-02
   8.322  0.180E-02  0.180E-02
   8.337  0.175E-02  0.175E-02
   8.352  0.169E-02  0.169E-02
   8.367  0.163E-02  0.163E-02
   8.382  0.156E-02  0.156E-02
   8.397  0.150E-02  0.150E-02
   8.412  0.143E-02  0.143E-02
   8.427  0.136E-02  0.136E-02
   8.442  0.129E-02  0.129E-02
   8.457  0.121E-02  0.121E-02
   8.472  0.114E-02  0.114E-02
   8.487  0.107E-02  0.107E-02
   8.502  0.997E-03  0.997E-03
   8.517  0.926E-03  0.926E-03
   8.532  0.857E-03  0.857E-03
   8.547  0.789E-03  0.789E-03
   8.562  0.723E-03  0.723E-03
   8.577  0.661E-03  0.661E-03
   8.592  0.600E-03  0.600E-03
   8.607  0.543E-03  0.543E-03
   8.622  0.489E-03  0.489E-03
   8.637  0.438E-03  0.438E-03
   8.652  0.391E-03  0.391E-03
   8.667  0.347E-03  0.347E-03
   8.682  0.307E-03  0.307E-03
   8.697  0.270E-03  0.270E-03
   8.712  0.236E-03  0.236E-03
   8.727  0.205E-03  0.205E-03
   8.742  0.178E-03  0.178E-03
   8.757  0.153E-03  0.153E-03
   8.772  0.132E-03  0.132E-03
   8.787  0.112E-03  0.112E-03
   8.802  0.955E-04  0.955E-04
   8.817  0.808E-04  0.808E-04
   8.832  0.681E-04  0.681E-04
   8.847  0.573E-04  0.573E-04
   8.862  0.482E-04  0.482E-04
   8.877  0.407E-04  0.407E-04
   8.892  0.346E-04  0.346E-04
   8.907  0.299E-04  0.299E-04
   8.922  0.265E-04  0.265E-04
   8.937  0.244E-04  0.244E-04
   8.952  0.236E-04  0.236E-04
   8.967  0.243E-04  0.243E-04
   8.982  0.266E-04  0.266E-04
   8.997  0.307E-04  0.307E-04
   9.012  0.370E-04  0.370E-04
   9.027  0.458E-04  0.458E-04
   9.042  0.576E-04  0.576E-04
   9.057  0.732E-04  0.732E-04
   9.072  0.934E-04  0.934E-04
   9.087  0.119E-03  0.119E-03
   9.102  0.151E-03  0.151E-03
   9.117  0.192E-03  0.192E-03
   9.132  0.242E-03  0.242E-03
   9.147  0.303E-03  0.303E-03
   9.162  0.379E-03  0.379E-03
   9.177  0.470E-03  0.470E-03
   9.192  0.580E-03  0.580E-03
   9.207  0.712E-03  0.712E-03
   9.222  0.868E-03  0.868E-03
   9.237  0.105E-02  0.105E-02
   9.252  0.127E-02  0.127E-02
   9.267  0.152E-02  0.152E-02
   9.282  0.182E-02  0.182E-02
   9.297  0.215E-02  0.215E-02
   9.312  0.254E-02  0.254E-02
   9.327  0.298E-02  0.298E-02
   9.342  0.347E-02  0.347E-02
   9.357  0.403E-02  0.403E-02
   9.372  0.464E-02  0.464E-02
   9.387  0.532E-02  0.532E-02
   9.402  0.607E-02  0.607E-02
   9.417  0.688E-02  0.688E-02
   9.432  0.776E-02  0.776E-02
   9.447  0.871E-02  0.871E-02
   9.462  0.971E-02  0.971E-02
   9.477  0.108E-01  0.108E-01
   9.492  0.119E-01  0.119E-01
   9.507  0.131E-01  0.131E-01
   9.522  0.143E-01  0.143E-01
   9.537  0.155E-01  0.155E-01
   9.552  0.168E-01  0.168E-01
   9.567  0.180E-01  0.180E-01
   9.582  0.193E-01  0.193E-01
   9.597  0.205E-01  0.205E-01
   9.612  0.218E-01  0.218E-01
   9.627  0.230E-01  0.230E-01
   9.642  0.241E-01  0.241E-01
   9.657  0.252E-01  0.252E-01
   9.672  0.262E-01  0.262E-01
   9.687  0.271E-01  0.271E-01
   9.702  0.280E-01  0.280E-01
   9.717  0.287E-01  0.287E-01
   9.732  0.294E-01  0.294E-01
   9.747  0.299E-01  0.299E-01
   9.762  0.304E-01  0.304E-01
   9.777  0.307E-01  0.307E-01
   9.792  0.309E-01  0.309E-01
   9.807  0.311E-01  0.311E-01
   9.822  0.311E-01  0.311E-01
   9.837  0.311E-01  0.311E-01
   9.852  0.310E-01  0.310E-01
   9.867  0.308E-01  0.308E-01
   9.882  0.305E-01  0.305E-01
   9.897  0.302E-01  0.302E-01
   9.912  0.298E-01  0.298E-01
   9.927  0.295E-01  0.295E-01
   9.942  0.291E-01  0.291E-01
   9.957  0.286E-01  0.286E-01
   9.972  0.282E-01  0.282E-01
   9.987  0.278E-01  0.278E-01
  10.002  0.274E-01  0.274E-01
  10.017  0.271E-01  0.271E-01
  10.032  0.267E-01  0.267E-01
  10.047  0.265E-01  0.265E-01
  10.062  0.262E-01  0.262E-01
  10.077  0.261E-01  0.261E-01
  10.092  0.259E-01  0.259E-01
  10.107  0.259E-01  0.259E-01
  10.122  0.259E-01  0.259E-01
  10.137  0.260E-01  0.260E-01
  10.152  0.262E-01  0.262E-01
  10.167  0.264E-01  0.264E-01
  10.182  0.267E-01  0.267E-01
  10.197  0.271E-01  0.271E-01
  10.212  0.275E-01  0.275E-01
  10.227  0.280E-01  0.280E-01
  10.242  0.286E-01  0.286E-01
  10.257  0.293E-01  0.293E-01
  10.272  0.300E-01  0.300E-01
  10.287  0.308E-01  0.308E-01
  10.302  0.316E-01  0.316E-01
  10.317  0.325E-01  0.325E-01
  10.332  0.335E-01  0.335E-01
  10.347  0.345E-01  0.345E-01
  10.362  0.355E-01  0.355E-01
  10.377  0.366E-01  0.366E-01
  10.392  0.378E-01  0.378E-01
  10.407  0.389E-01  0.389E-01
  10.422  0.402E-01  0.402E-01
  10.437  0.414E-01  0.414E-01
  10.452  0.427E-01  0.427E-01
  10.467  0.440E-01  0.440E-01
  10.482  0.453E-01  0.453E-01
  10.497  0.467E-01  0.467E-01
  10.512  0.481E-01  0.481E-01
  10.527  0.495E-01  0.495E-01
  10.542  0.508E-01  0.508E-01
  10.557  0.522E-01  0.522E-01
  10.572  0.536E-01  0.536E-01
  10.587  0.549E-01  0.549E-01
  10.602  0.562E-01  0.562E-01
  10.617  0.575E-01  0.575E-01
  10.632  0.587E-01  0.587E-01
  10.647  0.598E-01  0.598E-01
  10.662  0.609E-01  0.609E-01
  10.677  0.619E-01  0.619E-01
  10.692  0.627E-01  0.627E-01
  10.707  0.635E-01  0.635E-01
  10.722  0.642E-01  0.642E-01
  10.737  0.648E-01  0.648E-01
  10.752  0.652E-01  0.652E-01
  10.767  0.655E-01  0.655E-01
  10.782  0.658E-01  0.658E-01
  10.797  0.658E-01  0.658E-01
  10.812  0.658E-01  0.658E-01
  10.827  0.657E-01  0.657E-01
  10.842  0.655E-01  0.655E-01
  10.857  0.652E-01  0.652E-01
  10.872  0.648E-01  0.648E-01
  10.887  0.643E-01  0.643E-01
  10.902  0.638E-01  0.638E-01
  10.917  0.633E-01  0.633E-01
  10.932  0.627E-01  0.627E-01
  10.947  0.621E-01  0.621E-01
  10.962  0.615E-01  0.615E-01
  10.977  0.609E-01  0.609E-01
  10.992  0.604E-01  0.604E-01
  11.007  0.598E-01  0.598E-01
  11.022  0.593E-01  0.593E-01
  11.037  0.589E-01  0.589E-01
  11.052  0.584E-01  0.584E-01
  11.067  0.581E-01  0.581E-01
  11.082  0.577E-01  0.577E-01
  11.097  0.574E-01  0.574E-01
  11.112  0.572E-01  0.572E-01
  11.127  0.570E-01  0.570E-01
  11.142  0.568E-01  0.568E-01
  11.157  0.566E-01  0.566E-01
  11.172  0.565E-01  0.565E-01
  11.187  0.564E-01  0.564E-01
  11.202  0.563E-01  0.563E-01
  11.217  0.562E-01  0.562E-01
  11.232  0.561E-01  0.561E-01
  11.247  0.560E-01  0.560E-01
  11.262  0.559E-01  0.559E-01
  11.277  0.558E-01  0.558E-01
  11.292  0.557E-01  0.557E-01
  11.307  0.556E-01  0.556E-01
  11.322  0.555E-01  0.555E-01
  11.337  0.553E-01  0.553E-01
  11.352  0.551E-01  0.551E-01
  11.367  0.550E-01  0.550E-01
  11.382  0.548E-01  0.548E-01
  11.397  0.545E-01  0.545E-01
  11.412  0.543E-01  0.543E-01
  11.427  0.541E-01  0.541E-01
  11.442  0.538E-01  0.538E-01
  11.457  0.535E-01  0.535E-01
  11.472  0.532E-01  0.532E-01
  11.487  0.529E-01  0.529E-01
  11.502  0.525E-01  0.525E-01
  11.517  0.521E-01  0.521E-01
  11.532  0.517E-01  0.517E-01
  11.547  0.512E-01  0.512E-01
  11.562  0.508E-01  0.508E-01
  11.577  0.503E-01  0.503E-01
  11.592  0.497E-01  0.497E-01
  11.607  0.491E-01  0.491E-01
  11.622  0.485E-01  0.485E-01
  11.637  0.479E-01  0.479E-01
  11.652  0.472E-01  0.472E-01
  11.667  0.465E-01  0.465E-01
  11.682  0.457E-01  0.457E-01
  11.697  0.449E-01  0.449E-01
  11.712  0.441E-01  0.441E-01
  11.727  0.433E-01  0.433E-01
  11.742  0.424E-01  0.424E-01
  11.757  0.415E-01  0.415E-01
  11.772  0.406E-01  0.406E-01
  11.787  0.397E-01  0.397E-01
  11.802  0.387E-01  0.387E-01
  11.817  0.378E-01  0.378E-01
  11.832  0.368E-01  0.368E-01
  11.847  0.359E-01  0.359E-01
  11.862  0.349E-01  0.349E-01
  11.877  0.339E-01  0.339E-01
  11.892  0.329E-01  0.329E-01
  11.907  0.320E-01  0.320E-01
  11.922  0.310E-01  0.310E-01
  11.937  0.300E-01  0.300E-01
  11.952  0.291E-01  0.291E-01
  11.967  0.281E-01  0.281E-01
  11.982  0.272E-01  0.272E-01
  11.997  0.263E-01  0.263E-01
  12.012  0.254E-01  0.254E-01
  12.027  0.245E-01  0.245E-01
  12.042  0.236E-01  0.236E-01
  12.057  0.227E-01  0.227E-01
  12.072  0.219E-01  0.219E-01
  12.087  0.211E-01  0.211E-01
  12.102  0.203E-01  0.203E-01
  12.117  0.196E-01  0.196E-01
  12.132  0.189E-01  0.189E-01
  12.147  0.182E-01  0.182E-01
  12.162  0.176E-01  0.176E-01
  12.177  0.170E-01  0.170E-01
  12.192  0.164E-01  0.164E-01
  12.207  0.159E-01  0.159E-01
  12.222  0.154E-01  0.154E-01
  12.237  0.150E-01  0.150E-01
  12.252  0.147E-01  0.147E-01
  12.267  0.144E-01  0.144E-01
  12.282  0.142E-01  0.142E-01
  12.297  0.140E-01  0.140E-01
  12.312  0.139E-01  0.139E-01
  12.327  0.140E-01  0.140E-01
  12.342  0.140E-01  0.140E-01
  12.357  0.142E-01  0.142E-01
  12.372  0.145E-01  0.145E-01
  12.387  0.148E-01  0.148E-01
  12.402  0.153E-01  0.153E-01
  12.417  0.159E-01  0.159E-01
  12.432  0.165E-01  0.165E-01
  12.447  0.173E-01  0.173E-01
  12.462  0.181E-01  0.181E-01
  12.477  0.191E-01  0.191E-01
  12.492  0.202E-01  0.202E-01
  12.507  0.214E-01  0.214E-01
  12.522  0.226E-01  0.226E-01
  12.537  0.240E-01  0.240E-01
  12.552  0.254E-01  0.254E-01
  12.567  0.269E-01  0.269E-01
  12.582  0.284E-01  0.284E-01
  12.597  0.300E-01  0.300E-01
  12.612  0.317E-01  0.317E-01
  12.627  0.333E-01  0.333E-01
  12.642  0.350E-01  0.350E-01
  12.657  0.367E-01  0.367E-01
  12.672  0.384E-01  0.384E-01
  12.687  0.401E-01  0.401E-01
  12.702  0.417E-01  0.417E-01
  12.717  0.433E-01  0.433E-01
  12.732  0.449E-01  0.449E-01
  12.747  0.464E-01  0.464E-01
  12.762  0.478E-01  0.478E-01
  12.777  0.492E-01  0.492E-01
  12.792  0.505E-01  0.505E-01
  12.807  0.517E-01  0.517E-01
  12.822  0.528E-01  0.528E-01
  12.837  0.539E-01  0.539E-01
  12.852  0.548E-01  0.548E-01
  12.867  0.557E-01  0.557E-01
  12.882  0.565E-01  0.565E-01
  12.897  0.572E-01  0.572E-01
  12.912  0.578E-01  0.578E-01
  12.927  0.583E-01  0.583E-01
  12.942  0.588E-01  0.588E-01
  12.957  0.591E-01  0.591E-01
  12.972  0.594E-01  0.594E-01
  12.987  0.596E-01  0.596E-01
  13.002  0.598E-01  0.598E-01
  13.017  0.598E-01  0.598E-01
  13.032  0.598E-01  0.598E-01
  13.047  0.597E-01  0.597E-01
  13.062  0.595E-01  0.595E-01
  13.077  0.592E-01  0.592E-01
  13.092  0.588E-01  0.588E-01
  13.107  0.583E-01  0.583E-01
  13.122  0.578E-01  0.578E-01
  13.137  0.572E-01  0.572E-01
  13.152  0.565E-01  0.565E-01
  13.167  0.557E-01  0.557E-01
  13.182  0.548E-01  0.548E-01
  13.197  0.539E-01  0.539E-01
  13.212  0.529E-01  0.529E-01
  13.227  0.518E-01  0.518E-01
  13.242  0.507E-01  0.507E-01
  13.257  0.495E-01  0.495E-01
  13.272  0.483E-01  0.483E-01
  13.287  0.471E-01  0.471E-01
  13.302  0.458E-01  0.458E-01
  13.317  0.445E-01  0.445E-01
  13.332  0.433E-01  0.433E-01
  13.347  0.420E-01  0.420E-01
  13.362  0.407E-01  0.407E-01
  13.377  0.395E-01  0.395E-01
  13.392  0.382E-01  0.382E-01
  13.407  0.370E-01  0.370E-01
  13.422  0.359E-01  0.359E-01
  13.437  0.347E-01  0.347E-01
  13.452  0.336E-01  0.336E-01
  13.467  0.326E-01  0.326E-01
  13.482  0.316E-01  0.316E-01
  13.497  0.306E-01  0.306E-01
  13.512  0.297E-01  0.297E-01
  13.527  0.289E-01  0.289E-01
  13.542  0.281E-01  0.281E-01
  13.557  0.273E-01  0.273E-01
  13.572  0.266E-01  0.266E-01
  13.587  0.259E-01  0.259E-01
  13.602  0.252E-01  0.252E-01
  13.617  0.246E-01  0.246E-01
  13.632  0.240E-01  0.240E-01
  13.647  0.235E-01  0.235E-01
  13.662  0.229E-01  0.229E-01
  13.677  0.224E-01  0.224E-01
  13.692  0.219E-01  0.219E-01
  13.707  0.215E-01  0.215E-01
  13.722  0.210E-01  0.210E-01
  13.737  0.206E-01  0.206E-01
  13.752  0.202E-01  0.202E-01
  13.767  0.198E-01  0.198E-01
  13.782  0.194E-01  0.194E-01
  13.797  0.190E-01  0.190E-01
  13.812  0.186E-01  0.186E-01
  13.827  0.182E-01  0.182E-01
  13.842  0.179E-01  0.179E-01
  13.857  0.175E-01  0.175E-01
  13.872  0.172E-01  0.172E-01
  13.887  0.168E-01  0.168E-01
  13.902  0.165E-01  0.165E-01
  13.917  0.162E-01  0.162E-01
  13.932  0.158E-01  0.158E-01
  13.947  0.155E-01  0.155E-01
  13.962  0.153E-01  0.153E-01
  13.977  0.150E-01  0.150E-01
  13.992  0.147E-01  0.147E-01
  14.007  0.145E-01  0.145E-01
  14.022  0.143E-01  0.143E-01
  14.037  0.140E-01  0.140E-01
  14.052  0.139E-01  0.139E-01
  14.067  0.137E-01  0.137E-01
  14.082  0.135E-01  0.135E-01
  14.097  0.134E-01  0.134E-01
  14.112  0.133E-01  0.133E-01
  14.127  0.131E-01  0.131E-01
  14.142  0.130E-01  0.130E-01
  14.157  0.130E-01  0.130E-01
  14.172  0.129E-01  0.129E-01
  14.187  0.128E-01  0.128E-01
  14.202  0.128E-01  0.128E-01
  14.217  0.128E-01  0.128E-01
  14.232  0.128E-01  0.128E-01
  14.247  0.128E-01  0.128E-01
  14.262  0.128E-01  0.128E-01
  14.277  0.128E-01  0.128E-01
  14.292  0.128E-01  0.128E-01
  14.307  0.128E-01  0.128E-01
  14.322  0.129E-01  0.129E-01
  14.337  0.129E-01  0.129E-01
  14.352  0.130E-01  0.130E-01
  14.367  0.130E-01  0.130E-01
  14.382  0.131E-01  0.131E-01
  14.397  0.132E-01  0.132E-01
  14.412  0.133E-01  0.133E-01
  14.427  0.134E-01  0.134E-01
  14.442  0.135E-01  0.135E-01
  14.457  0.136E-01  0.136E-01
  14.472  0.137E-01  0.137E-01
  14.487  0.138E-01  0.138E-01
  14.502  0.140E-01  0.140E-01
  14.517  0.141E-01  0.141E-01
  14.532  0.142E-01  0.142E-01
  14.547  0.143E-01  0.143E-01
  14.562  0.144E-01  0.144E-01
  14.577  0.145E-01  0.145E-01
  14.592  0.146E-01  0.146E-01
  14.607  0.147E-01  0.147E-01
  14.622  0.148E-01  0.148E-01
  14.637  0.149E-01  0.149E-01
  14.652  0.149E-01  0.149E-01
  14.667  0.149E-01  0.149E-01
  14.682  0.149E-01  0.149E-01
  14.697  0.149E-01  0.149E-01
  14.712  0.149E-01  0.149E-01
  14.727  0.149E-01  0.149E-01
  14.742  0.148E-01  0.148E-01
  14.757  0.148E-01  0.148E-01
  14.772  0.147E-01  0.147E-01
  14.787  0.146E-01  0.146E-01
  14.802  0.145E-01  0.145E-01
  14.817  0.144E-01  0.144E-01
  14.832  0.143E-01  0.143E-01
  14.847  0.141E-01  0.141E-01
  14.862  0.140E-01  0.140E-01
  14.877  0.138E-01  0.138E-01
  14.892  0.136E-01  0.136E-01
  14.907  0.134E-01  0.134E-01
  14.922  0.133E-01  0.133E-01
  14.937  0.131E-01  0.131E-01
  14.952  0.129E-01  0.129E-01
  14.967  0.127E-01  0.127E-01
  14.982  0.125E-01  0.125E-01
  14.997  0.123E-01  0.123E-01
  15.012  0.121E-01  0.121E-01
  15.027  0.119E-01  0.119E-01
  15.042  0.118E-01  0.118E-01
  15.057  0.116E-01  0.116E-01
  15.072  0.114E-01  0.114E-01
  15.087  0.112E-01  0.112E-01
  15.102  0.111E-01  0.111E-01
  15.117  0.109E-01  0.109E-01
  15.132  0.108E-01  0.108E-01
  15.147  0.107E-01  0.107E-01
  15.162  0.106E-01  0.106E-01
  15.177  0.105E-01  0.105E-01
  15.192  0.104E-01  0.104E-01
  15.207  0.103E-01  0.103E-01
  15.222  0.102E-01  0.102E-01
  15.237  0.101E-01  0.101E-01
  15.252  0.101E-01  0.101E-01
  15.267  0.100E-01  0.100E-01
  15.282  0.100E-01  0.100E-01
  15.297  0.998E-02  0.998E-02
  15.312  0.996E-02  0.996E-02
  15.327  0.995E-02  0.995E-02
  15.342  0.994E-02  0.994E-02
  15.357  0.994E-02  0.994E-02
  15.372  0.994E-02  0.994E-02
  15.387  0.993E-02  0.993E-02
  15.402  0.993E-02  0.993E-02
  15.417  0.992E-02  0.992E-02
  15.432  0.991E-02  0.991E-02
  15.447  0.990E-02  0.990E-02
  15.462  0.988E-02  0.988E-02
  15.477  0.985E-02  0.985E-02
  15.492  0.981E-02  0.981E-02
  15.507  0.976E-02  0.976E-02
  15.522  0.971E-02  0.971E-02
  15.537  0.964E-02  0.964E-02
  15.552  0.956E-02  0.956E-02
  15.567  0.947E-02  0.947E-02
  15.582  0.937E-02  0.937E-02
  15.597  0.925E-02  0.925E-02
  15.612  0.913E-02  0.913E-02
  15.627  0.899E-02  0.899E-02
  15.642  0.885E-02  0.885E-02
  15.657  0.869E-02  0.869E-02
  15.672  0.853E-02  0.853E-02
  15.687  0.836E-02  0.836E-02
  15.702  0.818E-02  0.818E-02
  15.717  0.799E-02  0.799E-02
  15.732  0.780E-02  0.780E-02
  15.747  0.761E-02  0.761E-02
  15.762  0.741E-02  0.741E-02
  15.777  0.721E-02  0.721E-02
  15.792  0.700E-02  0.700E-02
  15.807  0.680E-02  0.680E-02
  15.822  0.660E-02  0.660E-02
  15.837  0.639E-02  0.639E-02
  15.852  0.619E-02  0.619E-02
  15.867  0.599E-02  0.599E-02
  15.882  0.580E-02  0.580E-02
  15.897  0.560E-02  0.560E-02
  15.912  0.541E-02  0.541E-02
  15.927  0.523E-02  0.523E-02
  15.942  0.505E-02  0.505E-02
  15.957  0.487E-02  0.487E-02
  15.972  0.470E-02  0.470E-02
  15.987  0.454E-02  0.454E-02
  16.002  0.438E-02  0.438E-02
  16.017  0.423E-02  0.423E-02
  16.032  0.408E-02  0.408E-02
  16.047  0.394E-02  0.394E-02
  16.062  0.380E-02  0.380E-02
  16.077  0.367E-02  0.367E-02
  16.092  0.355E-02  0.355E-02
  16.107  0.343E-02  0.343E-02
  16.122  0.332E-02  0.332E-02
  16.137  0.321E-02  0.321E-02
  16.152  0.311E-02  0.311E-02
  16.167  0.301E-02  0.301E-02
  16.182  0.292E-02  0.292E-02
  16.197  0.284E-02  0.284E-02
  16.212  0.275E-02  0.275E-02
  16.227  0.267E-02  0.267E-02
  16.242  0.260E-02  0.260E-02
  16.257  0.253E-02  0.253E-02
  16.272  0.246E-02  0.246E-02
  16.287  0.240E-02  0.240E-02
  16.302  0.234E-02  0.234E-02
  16.317  0.228E-02  0.228E-02
  16.332  0.223E-02  0.223E-02
  16.347  0.218E-02  0.218E-02
  16.362  0.213E-02  0.213E-02
  16.377  0.208E-02  0.208E-02
  16.392  0.204E-02  0.204E-02
  16.407  0.200E-02  0.200E-02
  16.422  0.196E-02  0.196E-02
  16.437  0.193E-02  0.193E-02
  16.452  0.189E-02  0.189E-02
  16.467  0.186E-02  0.186E-02
  16.482  0.183E-02  0.183E-02
  16.497  0.181E-02  0.181E-02
  16.512  0.178E-02  0.178E-02
  16.527  0.176E-02  0.176E-02
  16.542  0.174E-02  0.174E-02
  16.557  0.172E-02  0.172E-02
  16.572  0.170E-02  0.170E-02
  16.587  0.168E-02  0.168E-02
  16.602  0.167E-02  0.167E-02
  16.617  0.165E-02  0.165E-02
  16.632  0.164E-02  0.164E-02
  16.647  0.162E-02  0.162E-02
  16.662  0.161E-02  0.161E-02
  16.677  0.159E-02  0.159E-02
  16.692  0.158E-02  0.158E-02
  16.707  0.156E-02  0.156E-02
  16.722  0.155E-02  0.155E-02
  16.737  0.153E-02  0.153E-02
  16.752  0.151E-02  0.151E-02
  16.767  0.150E-02  0.150E-02
  16.782  0.148E-02  0.148E-02
  16.797  0.146E-02  0.146E-02
  16.812  0.145E-02  0.145E-02
  16.827  0.143E-02  0.143E-02
  16.842  0.141E-02  0.141E-02
  16.857  0.139E-02  0.139E-02
  16.872  0.138E-02  0.138E-02
  16.887  0.136E-02  0.136E-02
  16.902  0.134E-02  0.134E-02
  16.917  0.133E-02  0.133E-02
  16.932  0.131E-02  0.131E-02
  16.947  0.130E-02  0.130E-02
  16.962  0.129E-02  0.129E-02
  16.977  0.127E-02  0.127E-02
  16.992  0.126E-02  0.126E-02
  17.007  0.126E-02  0.126E-02
  17.022  0.125E-02  0.125E-02
  17.037  0.124E-02  0.124E-02
  17.052  0.124E-02  0.124E-02
  17.067  0.123E-02  0.123E-02
  17.082  0.123E-02  0.123E-02
  17.097  0.123E-02  0.123E-02
  17.112  0.122E-02  0.122E-02
  17.127  0.122E-02  0.122E-02
  17.142  0.122E-02  0.122E-02
  17.157  0.122E-02  0.122E-02
  17.172  0.122E-02  0.122E-02
  17.187  0.122E-02  0.122E-02
  17.202  0.122E-02  0.122E-02
  17.217  0.122E-02  0.122E-02
  17.232  0.122E-02  0.122E-02
  17.247  0.122E-02  0.122E-02
  17.262  0.121E-02  0.121E-02
  17.277  0.121E-02  0.121E-02
  17.292  0.121E-02  0.121E-02
  17.307  0.120E-02  0.120E-02
  17.322  0.120E-02  0.120E-02
  17.337  0.119E-02  0.119E-02
  17.352  0.118E-02  0.118E-02
  17.367  0.117E-02  0.117E-02
  17.382  0.116E-02  0.116E-02
  17.397  0.116E-02  0.116E-02
  17.412  0.115E-02  0.115E-02
  17.427  0.113E-02  0.113E-02
  17.442  0.112E-02  0.112E-02
  17.457  0.111E-02  0.111E-02
  17.472  0.110E-02  0.110E-02
  17.487  0.109E-02  0.109E-02
  17.502  0.107E-02  0.107E-02
  17.517  0.106E-02  0.106E-02
  17.532  0.105E-02  0.105E-02
  17.547  0.104E-02  0.104E-02
  17.562  0.102E-02  0.102E-02
  17.577  0.101E-02  0.101E-02
  17.592  0.992E-03  0.992E-03
  17.607  0.977E-03  0.977E-03
  17.622  0.961E-03  0.961E-03
  17.637  0.945E-03  0.945E-03
  17.652  0.928E-03  0.928E-03
  17.667  0.910E-03  0.910E-03
  17.682  0.892E-03  0.892E-03
  17.697  0.873E-03  0.873E-03
  17.712  0.853E-03  0.853E-03
  17.727  0.833E-03  0.833E-03
  17.742  0.812E-03  0.812E-03
  17.757  0.790E-03  0.790E-03
  17.772  0.768E-03  0.768E-03
  17.787  0.746E-03  0.746E-03
  17.802  0.723E-03  0.723E-03
  17.817  0.700E-03  0.700E-03
  17.832  0.676E-03  0.676E-03
  17.847  0.653E-03  0.653E-03
  17.862  0.630E-03  0.630E-03
  17.877  0.606E-03  0.606E-03
  17.892  0.583E-03  0.583E-03
  17.907  0.561E-03  0.561E-03
  17.922  0.539E-03  0.539E-03
  17.937  0.517E-03  0.517E-03
  17.952  0.496E-03  0.496E-03
  17.967  0.476E-03  0.476E-03
  17.982  0.457E-03  0.457E-03
  17.997  0.439E-03  0.439E-03
  18.012  0.422E-03  0.422E-03
  18.027  0.407E-03  0.407E-03
  18.042  0.392E-03  0.392E-03
  18.057  0.379E-03  0.379E-03
  18.072  0.367E-03  0.367E-03
  18.087  0.356E-03  0.356E-03
  18.102  0.347E-03  0.347E-03
  18.117  0.339E-03  0.339E-03
  18.132  0.333E-03  0.333E-03
  18.147  0.328E-03  0.328E-03
  18.162  0.324E-03  0.324E-03
  18.177  0.322E-03  0.322E-03
  18.192  0.321E-03  0.321E-03
  18.207  0.321E-03  0.321E-03
  18.222  0.322E-03  0.322E-03
  18.237  0.325E-03  0.325E-03
  18.252  0.329E-03  0.329E-03
  18.267  0.333E-03  0.333E-03
  18.282  0.339E-03  0.339E-03
  18.297  0.345E-03  0.345E-03
  18.312  0.352E-03  0.352E-03
  18.327  0.359E-03  0.359E-03
  18.342  0.367E-03  0.367E-03
  18.357  0.375E-03  0.375E-03
  18.372  0.383E-03  0.383E-03
  18.387  0.391E-03  0.391E-03
  18.402  0.399E-03  0.399E-03
  18.417  0.406E-03  0.406E-03
  18.432  0.414E-03  0.414E-03
  18.447  0.420E-03  0.420E-03
  18.462  0.426E-03  0.426E-03
  18.477  0.431E-03  0.431E-03
  18.492  0.436E-03  0.436E-03
  18.507  0.439E-03  0.439E-03
  18.522  0.442E-03  0.442E-03
  18.537  0.444E-03  0.444E-03
  18.552  0.445E-03  0.445E-03
  18.567  0.445E-03  0.445E-03
  18.582  0.445E-03  0.445E-03
  18.597  0.444E-03  0.444E-03
  18.612  0.442E-03  0.442E-03
  18.627  0.439E-03  0.439E-03
  18.642  0.437E-03  0.437E-03
  18.657  0.434E-03  0.434E-03
  18.672  0.430E-03  0.430E-03
  18.687  0.427E-03  0.427E-03
  18.702  0.423E-03  0.423E-03
  18.717  0.420E-03  0.420E-03
  18.732  0.417E-03  0.417E-03
  18.747  0.414E-03  0.414E-03
  18.762  0.411E-03  0.411E-03
  18.777  0.409E-03  0.409E-03
  18.792  0.408E-03  0.408E-03
  18.807  0.407E-03  0.407E-03
  18.822  0.407E-03  0.407E-03
  18.837  0.408E-03  0.408E-03
  18.852  0.410E-03  0.410E-03
  18.867  0.413E-03  0.413E-03
  18.882  0.417E-03  0.417E-03
  18.897  0.423E-03  0.423E-03
  18.912  0.429E-03  0.429E-03
  18.927  0.437E-03  0.437E-03
  18.942  0.447E-03  0.447E-03
  18.957  0.458E-03  0.458E-03
  18.972  0.470E-03  0.470E-03
  18.987  0.483E-03  0.483E-03
  19.002  0.498E-03  0.498E-03
  19.017  0.515E-03  0.515E-03
  19.032  0.533E-03  0.533E-03
  19.047  0.552E-03  0.552E-03
  19.062  0.572E-03  0.572E-03
  19.077  0.593E-03  0.593E-03
  19.092  0.615E-03  0.615E-03
  19.107  0.637E-03  0.637E-03
  19.122  0.660E-03  0.660E-03
  19.137  0.684E-03  0.684E-03
  19.152  0.707E-03  0.707E-03
  19.167  0.731E-03  0.731E-03
  19.182  0.754E-03  0.754E-03
  19.197  0.777E-03  0.777E-03
  19.212  0.800E-03  0.800E-03
  19.227  0.821E-03  0.821E-03
  19.242  0.842E-03  0.842E-03
  19.257  0.861E-03  0.861E-03
  19.272  0.880E-03  0.880E-03
  19.287  0.897E-03  0.897E-03
  19.302  0.913E-03  0.913E-03
  19.317  0.928E-03  0.928E-03
  19.332  0.942E-03  0.942E-03
  19.347  0.954E-03  0.954E-03
  19.362  0.966E-03  0.966E-03
  19.377  0.977E-03  0.977E-03
  19.392  0.987E-03  0.987E-03
  19.407  0.996E-03  0.996E-03
  19.422  0.101E-02  0.101E-02
  19.437  0.102E-02  0.102E-02
  19.452  0.103E-02  0.103E-02
  19.467  0.104E-02  0.104E-02
  19.482  0.105E-02  0.105E-02
  19.497  0.106E-02  0.106E-02
  19.512  0.107E-02  0.107E-02
  19.527  0.109E-02  0.109E-02
  19.542  0.111E-02  0.111E-02
  19.557  0.113E-02  0.113E-02
  19.572  0.115E-02  0.115E-02
  19.587  0.118E-02  0.118E-02
  19.602  0.121E-02  0.121E-02
  19.617  0.124E-02  0.124E-02
  19.632  0.128E-02  0.128E-02
  19.647  0.131E-02  0.131E-02
  19.662  0.135E-02  0.135E-02
  19.677  0.140E-02  0.140E-02
  19.692  0.144E-02  0.144E-02
  19.707  0.149E-02  0.149E-02
  19.722  0.153E-02  0.153E-02
  19.737  0.158E-02  0.158E-02
  19.752  0.162E-02  0.162E-02
  19.767  0.167E-02  0.167E-02
  19.782  0.171E-02  0.171E-02
  19.797  0.175E-02  0.175E-02
  19.812  0.179E-02  0.179E-02
  19.827  0.183E-02  0.183E-02
  19.842  0.186E-02  0.186E-02
  19.857  0.188E-02  0.188E-02
  19.872  0.191E-02  0.191E-02
  19.887  0.192E-02  0.192E-02
  19.902  0.194E-02  0.194E-02
  19.917  0.194E-02  0.194E-02
  19.932  0.194E-02  0.194E-02
  19.947  0.194E-02  0.194E-02
  19.962  0.193E-02  0.193E-02
  19.977  0.192E-02  0.192E-02
  19.992  0.191E-02  0.191E-02
  20.007  0.189E-02  0.189E-02
  20.022  0.186E-02  0.186E-02
  20.037  0.184E-02  0.184E-02
  20.052  0.181E-02  0.181E-02
  20.067  0.178E-02  0.178E-02
  20.082  0.175E-02  0.175E-02
  20.097  0.171E-02  0.171E-02
  20.112  0.168E-02  0.168E-02
  20.127  0.165E-02  0.165E-02
  20.142  0.162E-02  0.162E-02
  20.157  0.158E-02  0.158E-02
  20.172  0.155E-02  0.155E-02
  20.187  0.152E-02  0.152E-02
  20.202  0.149E-02  0.149E-02
  20.217  0.147E-02  0.147E-02
  20.232  0.144E-02  0.144E-02
  20.247  0.142E-02  0.142E-02
  20.262  0.139E-02  0.139E-02
  20.277  0.137E-02  0.137E-02
  20.292  0.135E-02  0.135E-02
  20.307  0.134E-02  0.134E-02
  20.322  0.132E-02  0.132E-02
  20.337  0.130E-02  0.130E-02
  20.352  0.129E-02  0.129E-02
  20.367  0.128E-02  0.128E-02
  20.382  0.126E-02  0.126E-02
  20.397  0.125E-02  0.125E-02
  20.412  0.124E-02  0.124E-02
  20.427  0.123E-02  0.123E-02
  20.442  0.122E-02  0.122E-02
  20.457  0.121E-02  0.121E-02
  20.472  0.120E-02  0.120E-02
  20.487  0.119E-02  0.119E-02
  20.502  0.118E-02  0.118E-02
  20.517  0.117E-02  0.117E-02
  20.532  0.116E-02  0.116E-02
  20.547  0.115E-02  0.115E-02
  20.562  0.113E-02  0.113E-02
  20.577  0.112E-02  0.112E-02
  20.592  0.111E-02  0.111E-02
  20.607  0.110E-02  0.110E-02
  20.622  0.109E-02  0.109E-02
  20.637  0.108E-02  0.108E-02
  20.652  0.107E-02  0.107E-02
  20.667  0.106E-02  0.106E-02
  20.682  0.105E-02  0.105E-02
  20.697  0.103E-02  0.103E-02
  20.712  0.102E-02  0.102E-02
  20.727  0.101E-02  0.101E-02
  20.742  0.997E-03  0.997E-03
  20.757  0.984E-03  0.984E-03
  20.772  0.972E-03  0.972E-03
  20.787  0.959E-03  0.959E-03
  20.802  0.947E-03  0.947E-03
  20.817  0.934E-03  0.934E-03
  20.832  0.922E-03  0.922E-03
  20.847  0.910E-03  0.910E-03
  20.862  0.899E-03  0.899E-03
  20.877  0.888E-03  0.888E-03
  20.892  0.877E-03  0.877E-03
  20.907  0.867E-03  0.867E-03
  20.922  0.858E-03  0.858E-03
  20.937  0.849E-03  0.849E-03
  20.952  0.840E-03  0.840E-03
  20.967  0.832E-03  0.832E-03
  20.982  0.825E-03  0.825E-03
  20.997  0.818E-03  0.818E-03
  21.012  0.811E-03  0.811E-03
  21.027  0.805E-03  0.805E-03
  21.042  0.799E-03  0.799E-03
  21.057  0.793E-03  0.793E-03
  21.072  0.787E-03  0.787E-03
  21.087  0.781E-03  0.781E-03
  21.102  0.775E-03  0.775E-03
  21.117  0.769E-03  0.769E-03
  21.132  0.763E-03  0.763E-03
  21.147  0.757E-03  0.757E-03
  21.162  0.750E-03  0.750E-03
  21.177  0.743E-03  0.743E-03
  21.192  0.736E-03  0.736E-03
  21.207  0.728E-03  0.728E-03
  21.222  0.719E-03  0.719E-03
  21.237  0.710E-03  0.710E-03
  21.252  0.701E-03  0.701E-03
  21.267  0.692E-03  0.692E-03
  21.282  0.681E-03  0.681E-03
  21.297  0.671E-03  0.671E-03
  21.312  0.660E-03  0.660E-03
  21.327  0.649E-03  0.649E-03
  21.342  0.638E-03  0.638E-03
  21.357  0.626E-03  0.626E-03
  21.372  0.614E-03  0.614E-03
  21.387  0.603E-03  0.603E-03
  21.402  0.591E-03  0.591E-03
  21.417  0.579E-03  0.579E-03
  21.432  0.567E-03  0.567E-03
  21.447  0.555E-03  0.555E-03
  21.462  0.543E-03  0.543E-03
  21.477  0.532E-03  0.532E-03
  21.492  0.521E-03  0.521E-03
  21.507  0.510E-03  0.510E-03
  21.522  0.499E-03  0.499E-03
  21.537  0.489E-03  0.489E-03
  21.552  0.479E-03  0.479E-03
  21.567  0.469E-03  0.469E-03
  21.582  0.460E-03  0.460E-03
  21.597  0.452E-03  0.452E-03
  21.612  0.444E-03  0.444E-03
  21.627  0.436E-03  0.436E-03
  21.642  0.429E-03  0.429E-03
  21.657  0.423E-03  0.423E-03
  21.672  0.418E-03  0.418E-03
  21.687  0.413E-03  0.413E-03
  21.702  0.408E-03  0.408E-03
  21.717  0.405E-03  0.405E-03
  21.732  0.402E-03  0.402E-03
  21.747  0.399E-03  0.399E-03
  21.762  0.398E-03  0.398E-03
  21.777  0.397E-03  0.397E-03
  21.792  0.398E-03  0.398E-03
  21.807  0.399E-03  0.399E-03
  21.822  0.400E-03  0.400E-03
  21.837  0.403E-03  0.403E-03
  21.852  0.406E-03  0.406E-03
  21.867  0.410E-03  0.410E-03
  21.882  0.415E-03  0.415E-03
  21.897  0.420E-03  0.420E-03
  21.912  0.426E-03  0.426E-03
  21.927  0.433E-03  0.433E-03
  21.942  0.441E-03  0.441E-03
  21.957  0.448E-03  0.448E-03
  21.972  0.457E-03  0.457E-03
  21.987  0.466E-03  0.466E-03
  22.002  0.475E-03  0.475E-03
  22.017  0.484E-03  0.484E-03
  22.032  0.494E-03  0.494E-03
  22.047  0.504E-03  0.504E-03
  22.062  0.515E-03  0.515E-03
  22.077  0.525E-03  0.525E-03
  22.092  0.536E-03  0.536E-03
  22.107  0.547E-03  0.547E-03
  22.122  0.558E-03  0.558E-03
  22.137  0.569E-03  0.569E-03
  22.152  0.580E-03  0.580E-03
  22.167  0.591E-03  0.591E-03
  22.182  0.601E-03  0.601E-03
  22.197  0.612E-03  0.612E-03
  22.212  0.623E-03  0.623E-03
  22.227  0.634E-03  0.634E-03
  22.242  0.645E-03  0.645E-03
  22.257  0.655E-03  0.655E-03
  22.272  0.665E-03  0.665E-03
  22.287  0.676E-03  0.676E-03
  22.302  0.686E-03  0.686E-03
  22.317  0.695E-03  0.695E-03
  22.332  0.705E-03  0.705E-03
  22.347  0.714E-03  0.714E-03
  22.362  0.724E-03  0.724E-03
  22.377  0.733E-03  0.733E-03
  22.392  0.742E-03  0.742E-03
  22.407  0.751E-03  0.751E-03
  22.422  0.759E-03  0.759E-03
  22.437  0.768E-03  0.768E-03
  22.452  0.777E-03  0.777E-03
  22.467  0.786E-03  0.786E-03
  22.482  0.795E-03  0.795E-03
  22.497  0.804E-03  0.804E-03
  22.512  0.814E-03  0.814E-03
  22.527  0.824E-03  0.824E-03
  22.542  0.834E-03  0.834E-03
  22.557  0.845E-03  0.845E-03
  22.572  0.857E-03  0.857E-03
  22.587  0.868E-03  0.868E-03
  22.602  0.880E-03  0.880E-03
  22.617  0.893E-03  0.893E-03
  22.632  0.906E-03  0.906E-03
  22.647  0.919E-03  0.919E-03
  22.662  0.932E-03  0.932E-03
  22.677  0.945E-03  0.945E-03
  22.692  0.958E-03  0.958E-03
  22.707  0.970E-03  0.970E-03
  22.722  0.982E-03  0.982E-03
  22.737  0.993E-03  0.993E-03
  22.752  0.100E-02  0.100E-02
  22.767  0.101E-02  0.101E-02
  22.782  0.102E-02  0.102E-02
  22.797  0.103E-02  0.103E-02
  22.812  0.103E-02  0.103E-02
  22.827  0.104E-02  0.104E-02
  22.842  0.104E-02  0.104E-02
  22.857  0.104E-02  0.104E-02
  22.872  0.104E-02  0.104E-02
  22.887  0.103E-02  0.103E-02
  22.902  0.103E-02  0.103E-02
  22.917  0.102E-02  0.102E-02
  22.932  0.101E-02  0.101E-02
  22.947  0.100E-02  0.100E-02
  22.962  0.990E-03  0.990E-03
  22.977  0.977E-03  0.977E-03
  22.992  0.963E-03  0.963E-03
  23.007  0.947E-03  0.947E-03
  23.022  0.930E-03  0.930E-03
  23.037  0.913E-03  0.913E-03
  23.052  0.896E-03  0.896E-03
  23.067  0.878E-03  0.878E-03
  23.082  0.859E-03  0.859E-03
  23.097  0.841E-03  0.841E-03
  23.112  0.823E-03  0.823E-03
  23.127  0.805E-03  0.805E-03
  23.142  0.787E-03  0.787E-03
  23.157  0.770E-03  0.770E-03
  23.172  0.753E-03  0.753E-03
  23.187  0.737E-03  0.737E-03
  23.202  0.721E-03  0.721E-03
  23.217  0.707E-03  0.707E-03
  23.232  0.693E-03  0.693E-03
  23.247  0.679E-03  0.679E-03
  23.262  0.667E-03  0.667E-03
  23.277  0.655E-03  0.655E-03
  23.292  0.643E-03  0.643E-03
  23.307  0.632E-03  0.632E-03
  23.322  0.622E-03  0.622E-03
  23.337  0.612E-03  0.612E-03
  23.352  0.603E-03  0.603E-03
  23.367  0.594E-03  0.594E-03
  23.382  0.585E-03  0.585E-03
  23.397  0.577E-03  0.577E-03
  23.412  0.568E-03  0.568E-03
  23.427  0.560E-03  0.560E-03
  23.442  0.552E-03  0.552E-03
  23.457  0.544E-03  0.544E-03
  23.472  0.536E-03  0.536E-03
  23.487  0.529E-03  0.529E-03
  23.502  0.521E-03  0.521E-03
  23.517  0.513E-03  0.513E-03
  23.532  0.506E-03  0.506E-03
  23.547  0.498E-03  0.498E-03
  23.562  0.491E-03  0.491E-03
  23.577  0.483E-03  0.483E-03
  23.592  0.476E-03  0.476E-03
  23.607  0.469E-03  0.469E-03
  23.622  0.463E-03  0.463E-03
  23.637  0.456E-03  0.456E-03
  23.652  0.450E-03  0.450E-03
  23.667  0.444E-03  0.444E-03
  23.682  0.438E-03  0.438E-03
  23.697  0.433E-03  0.433E-03
  23.712  0.429E-03  0.429E-03
  23.727  0.424E-03  0.424E-03
  23.742  0.421E-03  0.421E-03
  23.757  0.417E-03  0.417E-03
  23.772  0.415E-03  0.415E-03
  23.787  0.413E-03  0.413E-03
  23.802  0.411E-03  0.411E-03
  23.817  0.410E-03  0.410E-03
  23.832  0.409E-03  0.409E-03
  23.847  0.409E-03  0.409E-03
  23.862  0.409E-03  0.409E-03
  23.877  0.409E-03  0.409E-03
  23.892  0.410E-03  0.410E-03
  23.907  0.411E-03  0.411E-03
  23.922  0.413E-03  0.413E-03
  23.937  0.414E-03  0.414E-03
  23.952  0.416E-03  0.416E-03
  23.967  0.418E-03  0.418E-03
  23.982  0.420E-03  0.420E-03
  23.997  0.423E-03  0.423E-03
  24.012  0.425E-03  0.425E-03
  24.027  0.428E-03  0.428E-03
  24.042  0.430E-03  0.430E-03
  24.057  0.433E-03  0.433E-03
  24.072  0.435E-03  0.435E-03
  24.087  0.438E-03  0.438E-03
  24.102  0.441E-03  0.441E-03
  24.117  0.443E-03  0.443E-03
  24.132  0.446E-03  0.446E-03
  24.147  0.449E-03  0.449E-03
  24.162  0.452E-03  0.452E-03
  24.177  0.455E-03  0.455E-03
  24.192  0.458E-03  0.458E-03
  24.207  0.461E-03  0.461E-03
  24.222  0.464E-03  0.464E-03
  24.237  0.467E-03  0.467E-03
  24.252  0.470E-03  0.470E-03
  24.267  0.473E-03  0.473E-03
  24.282  0.476E-03  0.476E-03
  24.297  0.479E-03  0.479E-03
  24.312  0.483E-03  0.483E-03
  24.327  0.486E-03  0.486E-03
  24.342  0.489E-03  0.489E-03
  24.357  0.492E-03  0.492E-03
  24.372  0.494E-03  0.494E-03
  24.387  0.497E-03  0.497E-03
  24.402  0.500E-03  0.500E-03
  24.417  0.503E-03  0.503E-03
  24.432  0.506E-03  0.506E-03
  24.447  0.510E-03  0.510E-03
  24.462  0.513E-03  0.513E-03
  24.477  0.516E-03  0.516E-03
  24.492  0.520E-03  0.520E-03
  24.507  0.523E-03  0.523E-03
  24.522  0.527E-03  0.527E-03
  24.537  0.531E-03  0.531E-03
  24.552  0.535E-03  0.535E-03
  24.567  0.539E-03  0.539E-03
  24.582  0.544E-03  0.544E-03
  24.597  0.549E-03  0.549E-03
  24.612  0.554E-03  0.554E-03
  24.627  0.559E-03  0.559E-03
  24.642  0.564E-03  0.564E-03
  24.657  0.569E-03  0.569E-03
  24.672  0.574E-03  0.574E-03
  24.687  0.580E-03  0.580E-03
  24.702  0.585E-03  0.585E-03
  24.717  0.590E-03  0.590E-03
  24.732  0.595E-03  0.595E-03
  24.747  0.600E-03  0.600E-03
  24.762  0.604E-03  0.604E-03
  24.777  0.608E-03  0.608E-03
  24.792  0.612E-03  0.612E-03
  24.807  0.615E-03  0.615E-03
  24.822  0.618E-03  0.618E-03
  24.837  0.620E-03  0.620E-03
  24.852  0.622E-03  0.622E-03
  24.867  0.622E-03  0.622E-03
  24.882  0.622E-03  0.622E-03
  24.897  0.622E-03  0.622E-03
  24.912  0.620E-03  0.620E-03
  24.927  0.618E-03  0.618E-03
  24.942  0.614E-03  0.614E-03
  24.957  0.610E-03  0.610E-03
  24.972  0.605E-03  0.605E-03
  24.987  0.600E-03  0.600E-03
  25.002  0.593E-03  0.593E-03
  25.017  0.586E-03  0.586E-03
  25.032  0.578E-03  0.578E-03
  25.047  0.569E-03  0.569E-03
  25.062  0.560E-03  0.560E-03
  25.077  0.550E-03  0.550E-03
  25.092  0.540E-03  0.540E-03
  25.107  0.529E-03  0.529E-03
  25.122  0.518E-03  0.518E-03
  25.137  0.507E-03  0.507E-03
  25.152  0.495E-03  0.495E-03
  25.167  0.484E-03  0.484E-03
  25.182  0.472E-03  0.472E-03
  25.197  0.460E-03  0.460E-03
  25.212  0.448E-03  0.448E-03
  25.227  0.437E-03  0.437E-03
  25.242  0.425E-03  0.425E-03
  25.257  0.414E-03  0.414E-03
  25.272  0.403E-03  0.403E-03
  25.287  0.392E-03  0.392E-03
  25.302  0.382E-03  0.382E-03
  25.317  0.371E-03  0.371E-03
  25.332  0.361E-03  0.361E-03
  25.347  0.352E-03  0.352E-03
  25.362  0.343E-03  0.343E-03
  25.377  0.334E-03  0.334E-03
  25.392  0.325E-03  0.325E-03
  25.407  0.317E-03  0.317E-03
  25.422  0.310E-03  0.310E-03
  25.437  0.303E-03  0.303E-03
  25.452  0.296E-03  0.296E-03
  25.467  0.290E-03  0.290E-03
  25.482  0.285E-03  0.285E-03
  25.497  0.280E-03  0.280E-03
  25.512  0.276E-03  0.276E-03
  25.527  0.272E-03  0.272E-03
  25.542  0.270E-03  0.270E-03
  25.557  0.268E-03  0.268E-03
  25.572  0.266E-03  0.266E-03
  25.587  0.266E-03  0.266E-03
  25.602  0.267E-03  0.267E-03
  25.617  0.268E-03  0.268E-03
  25.632  0.271E-03  0.271E-03
  25.647  0.274E-03  0.274E-03
  25.662  0.279E-03  0.279E-03
  25.677  0.284E-03  0.284E-03
  25.692  0.291E-03  0.291E-03
  25.707  0.299E-03  0.299E-03
  25.722  0.308E-03  0.308E-03
  25.737  0.318E-03  0.318E-03
  25.752  0.329E-03  0.329E-03
  25.767  0.341E-03  0.341E-03
  25.782  0.354E-03  0.354E-03
  25.797  0.368E-03  0.368E-03
  25.812  0.384E-03  0.384E-03
  25.827  0.400E-03  0.400E-03
  25.842  0.416E-03  0.416E-03
  25.857  0.433E-03  0.433E-03
  25.872  0.451E-03  0.451E-03
  25.887  0.469E-03  0.469E-03
  25.902  0.487E-03  0.487E-03
  25.917  0.504E-03  0.504E-03
  25.932  0.521E-03  0.521E-03
  25.947  0.538E-03  0.538E-03
  25.962  0.553E-03  0.553E-03
  25.977  0.567E-03  0.567E-03
  25.992  0.580E-03  0.580E-03
  26.007  0.591E-03  0.591E-03
  26.022  0.601E-03  0.601E-03
  26.037  0.608E-03  0.608E-03
  26.052  0.613E-03  0.613E-03
  26.067  0.616E-03  0.616E-03
  26.082  0.616E-03  0.616E-03
  26.097  0.614E-03  0.614E-03
  26.112  0.609E-03  0.609E-03
  26.127  0.602E-03  0.602E-03
  26.142  0.593E-03  0.593E-03
  26.157  0.581E-03  0.581E-03
  26.172  0.568E-03  0.568E-03
  26.187  0.552E-03  0.552E-03
  26.202  0.535E-03  0.535E-03
  26.217  0.516E-03  0.516E-03
  26.232  0.496E-03  0.496E-03
  26.247  0.475E-03  0.475E-03
  26.262  0.453E-03  0.453E-03
  26.277  0.431E-03  0.431E-03
  26.292  0.408E-03  0.408E-03
  26.307  0.386E-03  0.386E-03
  26.322  0.364E-03  0.364E-03
  26.337  0.343E-03  0.343E-03
  26.352  0.322E-03  0.322E-03
  26.367  0.302E-03  0.302E-03
  26.382  0.284E-03  0.284E-03
  26.397  0.266E-03  0.266E-03
  26.412  0.249E-03  0.249E-03
  26.427  0.234E-03  0.234E-03
  26.442  0.220E-03  0.220E-03
  26.457  0.207E-03  0.207E-03
  26.472  0.196E-03  0.196E-03
  26.487  0.186E-03  0.186E-03
  26.502  0.177E-03  0.177E-03
  26.517  0.169E-03  0.169E-03
  26.532  0.162E-03  0.162E-03
  26.547  0.156E-03  0.156E-03
  26.562  0.150E-03  0.150E-03
  26.577  0.146E-03  0.146E-03
  26.592  0.142E-03  0.142E-03
  26.607  0.139E-03  0.139E-03
  26.622  0.136E-03  0.136E-03
  26.637  0.133E-03  0.133E-03
  26.652  0.131E-03  0.131E-03
  26.667  0.129E-03  0.129E-03
  26.682  0.128E-03  0.128E-03
  26.697  0.126E-03  0.126E-03
  26.712  0.125E-03  0.125E-03
  26.727  0.123E-03  0.123E-03
  26.742  0.122E-03  0.122E-03
  26.757  0.120E-03  0.120E-03
  26.772  0.118E-03  0.118E-03
  26.787  0.117E-03  0.117E-03
  26.802  0.115E-03  0.115E-03
  26.817  0.113E-03  0.113E-03
  26.832  0.111E-03  0.111E-03
  26.847  0.109E-03  0.109E-03
  26.862  0.107E-03  0.107E-03
  26.877  0.105E-03  0.105E-03
  26.892  0.103E-03  0.103E-03
  26.907  0.101E-03  0.101E-03
  26.922  0.991E-04  0.991E-04
  26.937  0.970E-04  0.970E-04
  26.952  0.949E-04  0.949E-04
  26.967  0.928E-04  0.928E-04
  26.982  0.908E-04  0.908E-04
  26.997  0.888E-04  0.888E-04
  27.012  0.868E-04  0.868E-04
  27.027  0.850E-04  0.850E-04
  27.042  0.831E-04  0.831E-04
  27.057  0.814E-04  0.814E-04
  27.072  0.797E-04  0.797E-04
  27.087  0.780E-04  0.780E-04
  27.102  0.765E-04  0.765E-04
  27.117  0.750E-04  0.750E-04
  27.132  0.736E-04  0.736E-04
  27.147  0.722E-04  0.722E-04
  27.162  0.709E-04  0.709E-04
  27.177  0.696E-04  0.696E-04
  27.192  0.684E-04  0.684E-04
  27.207  0.673E-04  0.673E-04
  27.222  0.662E-04  0.662E-04
  27.237  0.651E-04  0.651E-04
  27.252  0.641E-04  0.641E-04
  27.267  0.631E-04  0.631E-04
  27.282  0.622E-04  0.622E-04
  27.297  0.613E-04  0.613E-04
  27.312  0.605E-04  0.605E-04
  27.327  0.597E-04  0.597E-04
  27.342  0.589E-04  0.589E-04
  27.357  0.582E-04  0.582E-04
  27.372  0.576E-04  0.576E-04
  27.387  0.569E-04  0.569E-04
  27.402  0.564E-04  0.564E-04
  27.417  0.558E-04  0.558E-04
  27.432  0.554E-04  0.554E-04
  27.447  0.550E-04  0.550E-04
  27.462  0.546E-04  0.546E-04
  27.477  0.543E-04  0.543E-04
  27.492  0.540E-04  0.540E-04
  27.507  0.538E-04  0.538E-04
  27.522  0.536E-04  0.536E-04
  27.537  0.534E-04  0.534E-04
  27.552  0.533E-04  0.533E-04
  27.567  0.533E-04  0.533E-04
  27.582  0.532E-04  0.532E-04
  27.597  0.532E-04  0.532E-04
  27.612  0.532E-04  0.532E-04
  27.627  0.532E-04  0.532E-04
  27.642  0.533E-04  0.533E-04
  27.657  0.534E-04  0.534E-04
  27.672  0.535E-04  0.535E-04
  27.687  0.536E-04  0.536E-04
  27.702  0.538E-04  0.538E-04
  27.717  0.540E-04  0.540E-04
  27.732  0.542E-04  0.542E-04
  27.747  0.546E-04  0.546E-04
  27.762  0.549E-04  0.549E-04
  27.777  0.554E-04  0.554E-04
  27.792  0.560E-04  0.560E-04
  27.807  0.567E-04  0.567E-04
  27.822  0.575E-04  0.575E-04
  27.837  0.585E-04  0.585E-04
  27.852  0.597E-04  0.597E-04
  27.867  0.611E-04  0.611E-04
  27.882  0.627E-04  0.627E-04
  27.897  0.646E-04  0.646E-04
  27.912  0.667E-04  0.667E-04
  27.927  0.691E-04  0.691E-04
  27.942  0.718E-04  0.718E-04
  27.957  0.749E-04  0.749E-04
  27.972  0.782E-04  0.782E-04
  27.987  0.819E-04  0.819E-04
  28.002  0.860E-04  0.860E-04
  28.017  0.904E-04  0.904E-04
  28.032  0.951E-04  0.951E-04
  28.047  0.100E-03  0.100E-03
  28.062  0.106E-03  0.106E-03
  28.077  0.111E-03  0.111E-03
  28.092  0.117E-03  0.117E-03
  28.107  0.124E-03  0.124E-03
  28.122  0.130E-03  0.130E-03
  28.137  0.137E-03  0.137E-03
  28.152  0.144E-03  0.144E-03
  28.167  0.151E-03  0.151E-03
  28.182  0.158E-03  0.158E-03
  28.197  0.165E-03  0.165E-03
  28.212  0.172E-03  0.172E-03
  28.227  0.180E-03  0.180E-03
  28.242  0.187E-03  0.187E-03
  28.257  0.194E-03  0.194E-03
  28.272  0.201E-03  0.201E-03
  28.287  0.207E-03  0.207E-03
  28.302  0.214E-03  0.214E-03
  28.317  0.220E-03  0.220E-03
  28.332  0.226E-03  0.226E-03
  28.347  0.232E-03  0.232E-03
  28.362  0.237E-03  0.237E-03
  28.377  0.242E-03  0.242E-03
  28.392  0.247E-03  0.247E-03
  28.407  0.251E-03  0.251E-03
  28.422  0.255E-03  0.255E-03
  28.437  0.259E-03  0.259E-03
  28.452  0.262E-03  0.262E-03
  28.467  0.264E-03  0.264E-03
  28.482  0.267E-03  0.267E-03
  28.497  0.268E-03  0.268E-03
  28.512  0.270E-03  0.270E-03
  28.527  0.271E-03  0.271E-03
  28.542  0.271E-03  0.271E-03
  28.557  0.272E-03  0.272E-03
  28.572  0.272E-03  0.272E-03
  28.587  0.271E-03  0.271E-03
  28.602  0.271E-03  0.271E-03
  28.617  0.270E-03  0.270E-03
  28.632  0.269E-03  0.269E-03
  28.647  0.267E-03  0.267E-03
  28.662  0.266E-03  0.266E-03
  28.677  0.264E-03  0.264E-03
  28.692  0.262E-03  0.262E-03
  28.707  0.260E-03  0.260E-03
  28.722  0.259E-03  0.259E-03
  28.737  0.257E-03  0.257E-03
  28.752  0.256E-03  0.256E-03
  28.767  0.254E-03  0.254E-03
  28.782  0.253E-03  0.253E-03
  28.797  0.252E-03  0.252E-03
  28.812  0.252E-03  0.252E-03
  28.827  0.251E-03  0.251E-03
  28.842  0.251E-03  0.251E-03
  28.857  0.252E-03  0.252E-03
  28.872  0.253E-03  0.253E-03
  28.887  0.254E-03  0.254E-03
  28.902  0.255E-03  0.255E-03
  28.917  0.257E-03  0.257E-03
  28.932  0.260E-03  0.260E-03
  28.947  0.262E-03  0.262E-03
  28.962  0.265E-03  0.265E-03
  28.977  0.268E-03  0.268E-03
  28.992  0.272E-03  0.272E-03
  29.007  0.276E-03  0.276E-03
  29.022  0.279E-03  0.279E-03
  29.037  0.283E-03  0.283E-03
  29.052  0.287E-03  0.287E-03
  29.067  0.291E-03  0.291E-03
  29.082  0.295E-03  0.295E-03
  29.097  0.299E-03  0.299E-03
  29.112  0.303E-03  0.303E-03
  29.127  0.307E-03  0.307E-03
  29.142  0.310E-03  0.310E-03
  29.157  0.313E-03  0.313E-03
  29.172  0.317E-03  0.317E-03
  29.187  0.319E-03  0.319E-03
  29.202  0.322E-03  0.322E-03
  29.217  0.324E-03  0.324E-03
  29.232  0.326E-03  0.326E-03
  29.247  0.328E-03  0.328E-03
  29.262  0.330E-03  0.330E-03
  29.277  0.331E-03  0.331E-03
  29.292  0.332E-03  0.332E-03
  29.307  0.333E-03  0.333E-03
  29.322  0.333E-03  0.333E-03
  29.337  0.334E-03  0.334E-03
  29.352  0.334E-03  0.334E-03
  29.367  0.334E-03  0.334E-03
  29.382  0.334E-03  0.334E-03
  29.397  0.334E-03  0.334E-03
  29.412  0.334E-03  0.334E-03
  29.427  0.334E-03  0.334E-03
  29.442  0.334E-03  0.334E-03
  29.457  0.334E-03  0.334E-03
  29.472  0.334E-03  0.334E-03
  29.487  0.334E-03  0.334E-03
  29.502  0.334E-03  0.334E-03
  29.517  0.335E-03  0.335E-03
  29.532  0.336E-03  0.336E-03
  29.547  0.337E-03  0.337E-03
  29.562  0.338E-03  0.338E-03
  29.577  0.340E-03  0.340E-03
  29.592  0.342E-03  0.342E-03
  29.607  0.344E-03  0.344E-03
  29.622  0.347E-03  0.347E-03
  29.637  0.349E-03  0.349E-03
  29.652  0.353E-03  0.353E-03
  29.667  0.356E-03  0.356E-03
  29.682  0.360E-03  0.360E-03
  29.697  0.364E-03  0.364E-03
  29.712  0.368E-03  0.368E-03
  29.727  0.372E-03  0.372E-03
  29.742  0.377E-03  0.377E-03
  29.757  0.382E-03  0.382E-03
  29.772  0.386E-03  0.386E-03
  29.787  0.391E-03  0.391E-03
  29.802  0.395E-03  0.395E-03
  29.817  0.400E-03  0.400E-03
  29.832  0.404E-03  0.404E-03
  29.847  0.408E-03  0.408E-03
  29.862  0.412E-03  0.412E-03
  29.877  0.415E-03  0.415E-03
  29.892  0.418E-03  0.418E-03
  29.907  0.421E-03  0.421E-03
  29.922  0.423E-03  0.423E-03
  29.937  0.425E-03  0.425E-03
  29.952  0.426E-03  0.426E-03
  29.967  0.427E-03  0.427E-03
  29.982  0.427E-03  0.427E-03
  29.997  0.427E-03  0.427E-03
  30.012  0.427E-03  0.427E-03
  30.027  0.426E-03  0.426E-03
  30.042  0.424E-03  0.424E-03
  30.057  0.422E-03  0.422E-03
  30.072  0.420E-03  0.420E-03
  30.087  0.417E-03  0.417E-03
  30.102  0.413E-03  0.413E-03
  30.117  0.410E-03  0.410E-03
  30.132  0.406E-03  0.406E-03
  30.147  0.402E-03  0.402E-03
  30.162  0.397E-03  0.397E-03
  30.177  0.392E-03  0.392E-03
  30.192  0.388E-03  0.388E-03
  30.207  0.382E-03  0.382E-03
  30.222  0.377E-03  0.377E-03
  30.237  0.372E-03  0.372E-03
  30.252  0.367E-03  0.367E-03
  30.267  0.361E-03  0.361E-03
  30.282  0.356E-03  0.356E-03
  30.297  0.351E-03  0.351E-03
  30.312  0.345E-03  0.345E-03
  30.327  0.340E-03  0.340E-03
  30.342  0.335E-03  0.335E-03
  30.357  0.330E-03  0.330E-03
  30.372  0.325E-03  0.325E-03
  30.387  0.320E-03  0.320E-03
  30.402  0.315E-03  0.315E-03
  30.417  0.310E-03  0.310E-03
  30.432  0.305E-03  0.305E-03
  30.447  0.301E-03  0.301E-03
  30.462  0.296E-03  0.296E-03
  30.477  0.292E-03  0.292E-03
  30.492  0.287E-03  0.287E-03
  30.507  0.283E-03  0.283E-03
  30.522  0.279E-03  0.279E-03
  30.537  0.275E-03  0.275E-03
  30.552  0.271E-03  0.271E-03
  30.567  0.268E-03  0.268E-03
  30.582  0.265E-03  0.265E-03
  30.597  0.262E-03  0.262E-03
  30.612  0.260E-03  0.260E-03
  30.627  0.259E-03  0.259E-03
  30.642  0.258E-03  0.258E-03
  30.657  0.258E-03  0.258E-03
  30.672  0.259E-03  0.259E-03
  30.687  0.260E-03  0.260E-03
  30.702  0.263E-03  0.263E-03
  30.717  0.266E-03  0.266E-03
  30.732  0.271E-03  0.271E-03
  30.747  0.277E-03  0.277E-03
  30.762  0.283E-03  0.283E-03
  30.777  0.291E-03  0.291E-03
  30.792  0.300E-03  0.300E-03
  30.807  0.310E-03  0.310E-03
  30.822  0.320E-03  0.320E-03
  30.837  0.332E-03  0.332E-03
  30.852  0.344E-03  0.344E-03
  30.867  0.356E-03  0.356E-03
  30.882  0.369E-03  0.369E-03
  30.897  0.382E-03  0.382E-03
  30.912  0.396E-03  0.396E-03
  30.927  0.409E-03  0.409E-03
  30.942  0.422E-03  0.422E-03
  30.957  0.434E-03  0.434E-03
  30.972  0.446E-03  0.446E-03
  30.987  0.456E-03  0.456E-03
  31.002  0.466E-03  0.466E-03
  31.017  0.475E-03  0.475E-03
  31.032  0.482E-03  0.482E-03
  31.047  0.489E-03  0.489E-03
  31.062  0.493E-03  0.493E-03
  31.077  0.497E-03  0.497E-03
  31.092  0.499E-03  0.499E-03
  31.107  0.500E-03  0.500E-03
  31.122  0.499E-03  0.499E-03
  31.137  0.497E-03  0.497E-03
  31.152  0.494E-03  0.494E-03
  31.167  0.490E-03  0.490E-03
  31.182  0.485E-03  0.485E-03
  31.197  0.479E-03  0.479E-03
  31.212  0.473E-03  0.473E-03
  31.227  0.466E-03  0.466E-03
  31.242  0.459E-03  0.459E-03
  31.257  0.451E-03  0.451E-03
  31.272  0.444E-03  0.444E-03
  31.287  0.436E-03  0.436E-03
  31.302  0.429E-03  0.429E-03
  31.317  0.423E-03  0.423E-03
  31.332  0.416E-03  0.416E-03
  31.347  0.411E-03  0.411E-03
  31.362  0.406E-03  0.406E-03
  31.377  0.402E-03  0.402E-03
  31.392  0.399E-03  0.399E-03
  31.407  0.397E-03  0.397E-03
  31.422  0.396E-03  0.396E-03
  31.437  0.396E-03  0.396E-03
  31.452  0.398E-03  0.398E-03
  31.467  0.401E-03  0.401E-03
  31.482  0.406E-03  0.406E-03
  31.497  0.413E-03  0.413E-03
  31.512  0.421E-03  0.421E-03
  31.527  0.432E-03  0.432E-03
  31.542  0.445E-03  0.445E-03
  31.557  0.460E-03  0.460E-03
  31.572  0.478E-03  0.478E-03
  31.587  0.499E-03  0.499E-03
  31.602  0.522E-03  0.522E-03
  31.617  0.549E-03  0.549E-03
  31.632  0.579E-03  0.579E-03
  31.647  0.612E-03  0.612E-03
  31.662  0.649E-03  0.649E-03
  31.677  0.689E-03  0.689E-03
  31.692  0.732E-03  0.732E-03
  31.707  0.779E-03  0.779E-03
  31.722  0.829E-03  0.829E-03
  31.737  0.882E-03  0.882E-03
  31.752  0.938E-03  0.938E-03
  31.767  0.997E-03  0.997E-03
  31.782  0.106E-02  0.106E-02
  31.797  0.112E-02  0.112E-02
  31.812  0.119E-02  0.119E-02
  31.827  0.125E-02  0.125E-02
  31.842  0.132E-02  0.132E-02
  31.857  0.138E-02  0.138E-02
  31.872  0.144E-02  0.144E-02
  31.887  0.151E-02  0.151E-02
  31.902  0.157E-02  0.157E-02
  31.917  0.163E-02  0.163E-02
  31.932  0.168E-02  0.168E-02
  31.947  0.173E-02  0.173E-02
  31.962  0.178E-02  0.178E-02
  31.977  0.182E-02  0.182E-02
  31.992  0.185E-02  0.185E-02
  32.007  0.188E-02  0.188E-02
  32.022  0.191E-02  0.191E-02
  32.037  0.192E-02  0.192E-02
  32.052  0.193E-02  0.193E-02
  32.067  0.194E-02  0.194E-02
  32.082  0.194E-02  0.194E-02
  32.097  0.193E-02  0.193E-02
  32.112  0.191E-02  0.191E-02
  32.127  0.189E-02  0.189E-02
  32.142  0.187E-02  0.187E-02
  32.157  0.184E-02  0.184E-02
  32.172  0.180E-02  0.180E-02
  32.187  0.176E-02  0.176E-02
  32.202  0.172E-02  0.172E-02
  32.217  0.167E-02  0.167E-02
  32.232  0.163E-02  0.163E-02
  32.247  0.157E-02  0.157E-02
  32.262  0.152E-02  0.152E-02
  32.277  0.147E-02  0.147E-02
  32.292  0.141E-02  0.141E-02
  32.307  0.136E-02  0.136E-02
  32.322  0.130E-02  0.130E-02
  32.337  0.124E-02  0.124E-02
  32.352  0.119E-02  0.119E-02
  32.367  0.114E-02  0.114E-02
  32.382  0.109E-02  0.109E-02
  32.397  0.104E-02  0.104E-02
  32.412  0.987E-03  0.987E-03
  32.427  0.941E-03  0.941E-03
  32.442  0.897E-03  0.897E-03
  32.457  0.855E-03  0.855E-03
  32.472  0.816E-03  0.816E-03
  32.487  0.780E-03  0.780E-03
  32.502  0.745E-03  0.745E-03
  32.517  0.714E-03  0.714E-03
  32.532  0.685E-03  0.685E-03
  32.547  0.658E-03  0.658E-03
  32.562  0.634E-03  0.634E-03
  32.577  0.613E-03  0.613E-03
  32.592  0.594E-03  0.594E-03
  32.607  0.577E-03  0.577E-03
  32.622  0.562E-03  0.562E-03
  32.637  0.549E-03  0.549E-03
  32.652  0.538E-03  0.538E-03
  32.667  0.529E-03  0.529E-03
  32.682  0.522E-03  0.522E-03
  32.697  0.516E-03  0.516E-03
  32.712  0.512E-03  0.512E-03
  32.727  0.510E-03  0.510E-03
  32.742  0.509E-03  0.509E-03
  32.757  0.509E-03  0.509E-03
  32.772  0.510E-03  0.510E-03
  32.787  0.513E-03  0.513E-03
  32.802  0.517E-03  0.517E-03
  32.817  0.521E-03  0.521E-03
  32.832  0.527E-03  0.527E-03
  32.847  0.534E-03  0.534E-03
  32.862  0.543E-03  0.543E-03
  32.877  0.552E-03  0.552E-03
  32.892  0.562E-03  0.562E-03
  32.907  0.574E-03  0.574E-03
  32.922  0.587E-03  0.587E-03
  32.937  0.602E-03  0.602E-03
  32.952  0.618E-03  0.618E-03
  32.967  0.636E-03  0.636E-03
  32.982  0.656E-03  0.656E-03
  32.997  0.677E-03  0.677E-03
  33.012  0.701E-03  0.701E-03
  33.027  0.727E-03  0.727E-03
  33.042  0.756E-03  0.756E-03
  33.057  0.787E-03  0.787E-03
  33.072  0.820E-03  0.820E-03
  33.087  0.856E-03  0.856E-03
  33.102  0.895E-03  0.895E-03
  33.117  0.936E-03  0.936E-03
  33.132  0.980E-03  0.980E-03
  33.147  0.103E-02  0.103E-02
  33.162  0.108E-02  0.108E-02
  33.177  0.113E-02  0.113E-02
  33.192  0.118E-02  0.118E-02
  33.207  0.123E-02  0.123E-02
  33.222  0.129E-02  0.129E-02
  33.237  0.134E-02  0.134E-02
  33.252  0.140E-02  0.140E-02
  33.267  0.145E-02  0.145E-02
  33.282  0.151E-02  0.151E-02
  33.297  0.156E-02  0.156E-02
  33.312  0.161E-02  0.161E-02
  33.327  0.165E-02  0.165E-02
  33.342  0.170E-02  0.170E-02
  33.357  0.173E-02  0.173E-02
  33.372  0.177E-02  0.177E-02
  33.387  0.180E-02  0.180E-02
  33.402  0.182E-02  0.182E-02
  33.417  0.183E-02  0.183E-02
  33.432  0.184E-02  0.184E-02
  33.447  0.184E-02  0.184E-02
  33.462  0.184E-02  0.184E-02
  33.477  0.183E-02  0.183E-02
  33.492  0.181E-02  0.181E-02
  33.507  0.178E-02  0.178E-02
  33.522  0.175E-02  0.175E-02
  33.537  0.172E-02  0.172E-02
  33.552  0.167E-02  0.167E-02
  33.567  0.163E-02  0.163E-02
  33.582  0.157E-02  0.157E-02
  33.597  0.152E-02  0.152E-02
  33.612  0.146E-02  0.146E-02
  33.627  0.140E-02  0.140E-02
  33.642  0.134E-02  0.134E-02
  33.657  0.128E-02  0.128E-02
  33.672  0.122E-02  0.122E-02
  33.687  0.116E-02  0.116E-02
  33.702  0.110E-02  0.110E-02
  33.717  0.104E-02  0.104E-02
  33.732  0.984E-03  0.984E-03
  33.747  0.930E-03  0.930E-03
  33.762  0.879E-03  0.879E-03
  33.777  0.831E-03  0.831E-03
  33.792  0.785E-03  0.785E-03
  33.807  0.744E-03  0.744E-03
  33.822  0.705E-03  0.705E-03
  33.837  0.669E-03  0.669E-03
  33.852  0.637E-03  0.637E-03
  33.867  0.608E-03  0.608E-03
  33.882  0.581E-03  0.581E-03
  33.897  0.557E-03  0.557E-03
  33.912  0.536E-03  0.536E-03
  33.927  0.518E-03  0.518E-03
  33.942  0.501E-03  0.501E-03
  33.957  0.487E-03  0.487E-03
  33.972  0.474E-03  0.474E-03
  33.987  0.463E-03  0.463E-03
  34.002  0.453E-03  0.453E-03
  34.017  0.445E-03  0.445E-03
  34.032  0.438E-03  0.438E-03
  34.047  0.431E-03  0.431E-03
  34.062  0.426E-03  0.426E-03
  34.077  0.421E-03  0.421E-03
  34.092  0.416E-03  0.416E-03
  34.107  0.412E-03  0.412E-03
  34.122  0.409E-03  0.409E-03
  34.137  0.405E-03  0.405E-03
  34.152  0.402E-03  0.402E-03
  34.167  0.399E-03  0.399E-03
  34.182  0.396E-03  0.396E-03
  34.197  0.393E-03  0.393E-03
  34.212  0.391E-03  0.391E-03
  34.227  0.388E-03  0.388E-03
  34.242  0.385E-03  0.385E-03
  34.257  0.383E-03  0.383E-03
  34.272  0.381E-03  0.381E-03
  34.287  0.379E-03  0.379E-03
  34.302  0.377E-03  0.377E-03
  34.317  0.375E-03  0.375E-03
  34.332  0.373E-03  0.373E-03
  34.347  0.371E-03  0.371E-03
  34.362  0.370E-03  0.370E-03
  34.377  0.369E-03  0.369E-03
  34.392  0.367E-03  0.367E-03
  34.407  0.366E-03  0.366E-03
  34.422  0.365E-03  0.365E-03
  34.437  0.364E-03  0.364E-03
  34.452  0.362E-03  0.362E-03
  34.467  0.361E-03  0.361E-03
  34.482  0.359E-03  0.359E-03
  34.497  0.358E-03  0.358E-03
  34.512  0.356E-03  0.356E-03
  34.527  0.353E-03  0.353E-03
  34.542  0.351E-03  0.351E-03
  34.557  0.348E-03  0.348E-03
  34.572  0.345E-03  0.345E-03
  34.587  0.341E-03  0.341E-03
  34.602  0.337E-03  0.337E-03
  34.617  0.333E-03  0.333E-03
  34.632  0.328E-03  0.328E-03
  34.647  0.323E-03  0.323E-03
  34.662  0.317E-03  0.317E-03
  34.677  0.311E-03  0.311E-03
  34.692  0.305E-03  0.305E-03
  34.707  0.299E-03  0.299E-03
  34.722  0.292E-03  0.292E-03
  34.737  0.285E-03  0.285E-03
  34.752  0.279E-03  0.279E-03
  34.767  0.272E-03  0.272E-03
  34.782  0.265E-03  0.265E-03
  34.797  0.258E-03  0.258E-03
  34.812  0.251E-03  0.251E-03
  34.827  0.244E-03  0.244E-03
  34.842  0.237E-03  0.237E-03
  34.857  0.230E-03  0.230E-03
  34.872  0.223E-03  0.223E-03
  34.887  0.216E-03  0.216E-03
  34.902  0.210E-03  0.210E-03
  34.917  0.204E-03  0.204E-03
  34.932  0.197E-03  0.197E-03
  34.947  0.191E-03  0.191E-03
  34.962  0.186E-03  0.186E-03
  34.977  0.180E-03  0.180E-03
  34.992  0.175E-03  0.175E-03
  35.007  0.170E-03  0.170E-03
  35.022  0.165E-03  0.165E-03
  35.037  0.160E-03  0.160E-03
  35.052  0.156E-03  0.156E-03
  35.067  0.152E-03  0.152E-03
  35.082  0.148E-03  0.148E-03
  35.097  0.145E-03  0.145E-03
  35.112  0.142E-03  0.142E-03
  35.127  0.139E-03  0.139E-03
  35.142  0.137E-03  0.137E-03
  35.157  0.135E-03  0.135E-03
  35.172  0.133E-03  0.133E-03
  35.187  0.132E-03  0.132E-03
  35.202  0.130E-03  0.130E-03
  35.217  0.130E-03  0.130E-03
  35.232  0.129E-03  0.129E-03
  35.247  0.128E-03  0.128E-03
  35.262  0.128E-03  0.128E-03
  35.277  0.128E-03  0.128E-03
  35.292  0.128E-03  0.128E-03
  35.307  0.128E-03  0.128E-03
  35.322  0.128E-03  0.128E-03
  35.337  0.129E-03  0.129E-03
  35.352  0.129E-03  0.129E-03
  35.367  0.129E-03  0.129E-03
  35.382  0.130E-03  0.130E-03
  35.397  0.130E-03  0.130E-03
  35.412  0.131E-03  0.131E-03
  35.427  0.132E-03  0.132E-03
  35.442  0.132E-03  0.132E-03
  35.457  0.133E-03  0.133E-03
  35.472  0.134E-03  0.134E-03
  35.487  0.135E-03  0.135E-03
  35.502  0.136E-03  0.136E-03
  35.517  0.138E-03  0.138E-03
  35.532  0.140E-03  0.140E-03
  35.547  0.142E-03  0.142E-03
  35.562  0.145E-03  0.145E-03
  35.577  0.148E-03  0.148E-03
  35.592  0.151E-03  0.151E-03
  35.607  0.155E-03  0.155E-03
  35.622  0.160E-03  0.160E-03
  35.637  0.166E-03  0.166E-03
  35.652  0.172E-03  0.172E-03
  35.667  0.179E-03  0.179E-03
  35.682  0.187E-03  0.187E-03
  35.697  0.197E-03  0.197E-03
  35.712  0.207E-03  0.207E-03
  35.727  0.218E-03  0.218E-03
  35.742  0.231E-03  0.231E-03
  35.757  0.245E-03  0.245E-03
  35.772  0.260E-03  0.260E-03
  35.787  0.276E-03  0.276E-03
  35.802  0.294E-03  0.294E-03
  35.817  0.313E-03  0.313E-03
  35.832  0.333E-03  0.333E-03
  35.847  0.354E-03  0.354E-03
  35.862  0.376E-03  0.376E-03
  35.877  0.399E-03  0.399E-03
  35.892  0.423E-03  0.423E-03
  35.907  0.448E-03  0.448E-03
  35.922  0.473E-03  0.473E-03
  35.937  0.498E-03  0.498E-03
  35.952  0.523E-03  0.523E-03
  35.967  0.548E-03  0.548E-03
  35.982  0.572E-03  0.572E-03
  35.997  0.596E-03  0.596E-03
  36.012  0.618E-03  0.618E-03
  36.027  0.639E-03  0.639E-03
  36.042  0.658E-03  0.658E-03
  36.057  0.676E-03  0.676E-03
  36.072  0.691E-03  0.691E-03
  36.087  0.703E-03  0.703E-03
  36.102  0.714E-03  0.714E-03
  36.117  0.721E-03  0.721E-03
  36.132  0.726E-03  0.726E-03
  36.147  0.729E-03  0.729E-03
  36.162  0.728E-03  0.728E-03
  36.177  0.725E-03  0.725E-03
  36.192  0.719E-03  0.719E-03
  36.207  0.712E-03  0.712E-03
  36.222  0.702E-03  0.702E-03
  36.237  0.690E-03  0.690E-03
  36.252  0.677E-03  0.677E-03
  36.267  0.662E-03  0.662E-03
  36.282  0.647E-03  0.647E-03
  36.297  0.632E-03  0.632E-03
  36.312  0.616E-03  0.616E-03
  36.327  0.600E-03  0.600E-03
  36.342  0.585E-03  0.585E-03
  36.357  0.571E-03  0.571E-03
  36.372  0.558E-03  0.558E-03
  36.387  0.547E-03  0.547E-03
  36.402  0.536E-03  0.536E-03
  36.417  0.528E-03  0.528E-03
  36.432  0.521E-03  0.521E-03
  36.447  0.516E-03  0.516E-03
  36.462  0.513E-03  0.513E-03
  36.477  0.512E-03  0.512E-03
  36.492  0.512E-03  0.512E-03
  36.507  0.514E-03  0.514E-03
  36.522  0.518E-03  0.518E-03
  36.537  0.523E-03  0.523E-03
  36.552  0.529E-03  0.529E-03
  36.567  0.536E-03  0.536E-03
  36.582  0.545E-03  0.545E-03
  36.597  0.554E-03  0.554E-03
  36.612  0.565E-03  0.565E-03
  36.627  0.576E-03  0.576E-03
  36.642  0.587E-03  0.587E-03
  36.657  0.599E-03  0.599E-03
  36.672  0.611E-03  0.611E-03
  36.687  0.623E-03  0.623E-03
  36.702  0.636E-03  0.636E-03
  36.717  0.648E-03  0.648E-03
  36.732  0.661E-03  0.661E-03
  36.747  0.674E-03  0.674E-03
  36.762  0.687E-03  0.687E-03
  36.777  0.699E-03  0.699E-03
  36.792  0.712E-03  0.712E-03
  36.807  0.725E-03  0.725E-03
  36.822  0.737E-03  0.737E-03
  36.837  0.749E-03  0.749E-03
  36.852  0.761E-03  0.761E-03
  36.867  0.773E-03  0.773E-03
  36.882  0.785E-03  0.785E-03
  36.897  0.797E-03  0.797E-03
  36.912  0.808E-03  0.808E-03
  36.927  0.819E-03  0.819E-03
  36.942  0.829E-03  0.829E-03
  36.957  0.839E-03  0.839E-03
  36.972  0.849E-03  0.849E-03
  36.987  0.858E-03  0.858E-03
  37.002  0.866E-03  0.866E-03
  37.017  0.874E-03  0.874E-03
  37.032  0.882E-03  0.882E-03
  37.047  0.888E-03  0.888E-03
  37.062  0.894E-03  0.894E-03
  37.077  0.899E-03  0.899E-03
  37.092  0.903E-03  0.903E-03
  37.107  0.907E-03  0.907E-03
  37.122  0.909E-03  0.909E-03
  37.137  0.910E-03  0.910E-03
  37.152  0.910E-03  0.910E-03
  37.167  0.909E-03  0.909E-03
  37.182  0.907E-03  0.907E-03
  37.197  0.903E-03  0.903E-03
  37.212  0.898E-03  0.898E-03
  37.227  0.892E-03  0.892E-03
  37.242  0.885E-03  0.885E-03
  37.257  0.876E-03  0.876E-03
  37.272  0.866E-03  0.866E-03
  37.287  0.855E-03  0.855E-03
  37.302  0.843E-03  0.843E-03
  37.317  0.830E-03  0.830E-03
  37.332  0.817E-03  0.817E-03
  37.347  0.802E-03  0.802E-03
  37.362  0.787E-03  0.787E-03
  37.377  0.772E-03  0.772E-03
  37.392  0.756E-03  0.756E-03
  37.407  0.740E-03  0.740E-03
  37.422  0.725E-03  0.725E-03
  37.437  0.709E-03  0.709E-03
  37.452  0.694E-03  0.694E-03
  37.467  0.680E-03  0.680E-03
  37.482  0.666E-03  0.666E-03
  37.497  0.652E-03  0.652E-03
  37.512  0.640E-03  0.640E-03
  37.527  0.628E-03  0.628E-03
  37.542  0.617E-03  0.617E-03
  37.557  0.607E-03  0.607E-03
  37.572  0.598E-03  0.598E-03
  37.587  0.589E-03  0.589E-03
  37.602  0.581E-03  0.581E-03
  37.617  0.574E-03  0.574E-03
  37.632  0.568E-03  0.568E-03
  37.647  0.562E-03  0.562E-03
  37.662  0.557E-03  0.557E-03
  37.677  0.552E-03  0.552E-03
  37.692  0.547E-03  0.547E-03
  37.707  0.542E-03  0.542E-03
  37.722  0.538E-03  0.538E-03
  37.737  0.533E-03  0.533E-03
  37.752  0.528E-03  0.528E-03
  37.767  0.523E-03  0.523E-03
  37.782  0.518E-03  0.518E-03
  37.797  0.513E-03  0.513E-03
  37.812  0.507E-03  0.507E-03
  37.827  0.501E-03  0.501E-03
  37.842  0.495E-03  0.495E-03
  37.857  0.489E-03  0.489E-03
  37.872  0.483E-03  0.483E-03
  37.887  0.476E-03  0.476E-03
  37.902  0.469E-03  0.469E-03
  37.917  0.462E-03  0.462E-03
  37.932  0.455E-03  0.455E-03
  37.947  0.448E-03  0.448E-03
  37.962  0.441E-03  0.441E-03
  37.977  0.435E-03  0.435E-03
  37.992  0.428E-03  0.428E-03
  38.007  0.421E-03  0.421E-03
  38.022  0.415E-03  0.415E-03
  38.037  0.409E-03  0.409E-03
  38.052  0.403E-03  0.403E-03
  38.067  0.397E-03  0.397E-03
  38.082  0.392E-03  0.392E-03
  38.097  0.387E-03  0.387E-03
  38.112  0.382E-03  0.382E-03
  38.127  0.377E-03  0.377E-03
  38.142  0.372E-03  0.372E-03
  38.157  0.368E-03  0.368E-03
  38.172  0.364E-03  0.364E-03
  38.187  0.360E-03  0.360E-03
  38.202  0.356E-03  0.356E-03
  38.217  0.352E-03  0.352E-03
  38.232  0.348E-03  0.348E-03
  38.247  0.345E-03  0.345E-03
  38.262  0.341E-03  0.341E-03
  38.277  0.338E-03  0.338E-03
  38.292  0.334E-03  0.334E-03
  38.307  0.331E-03  0.331E-03
  38.322  0.328E-03  0.328E-03
  38.337  0.325E-03  0.325E-03
  38.352  0.322E-03  0.322E-03
  38.367  0.319E-03  0.319E-03
  38.382  0.316E-03  0.316E-03
  38.397  0.313E-03  0.313E-03
  38.412  0.311E-03  0.311E-03
  38.427  0.309E-03  0.309E-03
  38.442  0.307E-03  0.307E-03
  38.457  0.305E-03  0.305E-03
  38.472  0.303E-03  0.303E-03
  38.487  0.301E-03  0.301E-03
  38.502  0.300E-03  0.300E-03
  38.517  0.299E-03  0.299E-03
  38.532  0.298E-03  0.298E-03
  38.547  0.298E-03  0.298E-03
  38.562  0.297E-03  0.297E-03
  38.577  0.297E-03  0.297E-03
  38.592  0.297E-03  0.297E-03
  38.607  0.297E-03  0.297E-03
  38.622  0.298E-03  0.298E-03
  38.637  0.298E-03  0.298E-03
  38.652  0.299E-03  0.299E-03
  38.667  0.299E-03  0.299E-03
  38.682  0.300E-03  0.300E-03
  38.697  0.301E-03  0.301E-03
  38.712  0.301E-03  0.301E-03
  38.727  0.302E-03  0.302E-03
  38.742  0.302E-03  0.302E-03
  38.757  0.303E-03  0.303E-03
  38.772  0.303E-03  0.303E-03
  38.787  0.302E-03  0.302E-03
  38.802  0.302E-03  0.302E-03
  38.817  0.302E-03  0.302E-03
  38.832  0.301E-03  0.301E-03
  38.847  0.300E-03  0.300E-03
  38.862  0.298E-03  0.298E-03
  38.877  0.297E-03  0.297E-03
  38.892  0.295E-03  0.295E-03
  38.907  0.293E-03  0.293E-03
  38.922  0.291E-03  0.291E-03
  38.937  0.288E-03  0.288E-03
  38.952  0.286E-03  0.286E-03
  38.967  0.283E-03  0.283E-03
  38.982  0.280E-03  0.280E-03
  38.997  0.278E-03  0.278E-03
  39.012  0.275E-03  0.275E-03
  39.027  0.273E-03  0.273E-03
  39.042  0.270E-03  0.270E-03
  39.057  0.268E-03  0.268E-03
  39.072  0.266E-03  0.266E-03
  39.087  0.265E-03  0.265E-03
  39.102  0.263E-03  0.263E-03
  39.117  0.262E-03  0.262E-03
  39.132  0.262E-03  0.262E-03
  39.147  0.262E-03  0.262E-03
  39.162  0.262E-03  0.262E-03
  39.177  0.263E-03  0.263E-03
  39.192  0.265E-03  0.265E-03
  39.207  0.267E-03  0.267E-03
  39.222  0.269E-03  0.269E-03
  39.237  0.273E-03  0.273E-03
  39.252  0.276E-03  0.276E-03
  39.267  0.280E-03  0.280E-03
  39.282  0.285E-03  0.285E-03
  39.297  0.290E-03  0.290E-03
  39.312  0.295E-03  0.295E-03
  39.327  0.301E-03  0.301E-03
  39.342  0.307E-03  0.307E-03
  39.357  0.314E-03  0.314E-03
  39.372  0.320E-03  0.320E-03
  39.387  0.327E-03  0.327E-03
  39.402  0.333E-03  0.333E-03
  39.417  0.340E-03  0.340E-03
  39.432  0.346E-03  0.346E-03
  39.447  0.352E-03  0.352E-03
  39.462  0.358E-03  0.358E-03
  39.477  0.364E-03  0.364E-03
  39.492  0.369E-03  0.369E-03
  39.507  0.373E-03  0.373E-03
  39.522  0.377E-03  0.377E-03
  39.537  0.380E-03  0.380E-03
  39.552  0.383E-03  0.383E-03
  39.567  0.384E-03  0.384E-03
  39.582  0.385E-03  0.385E-03
  39.597  0.385E-03  0.385E-03
  39.612  0.383E-03  0.383E-03
  39.627  0.381E-03  0.381E-03
  39.642  0.378E-03  0.378E-03
  39.657  0.375E-03  0.375E-03
  39.672  0.370E-03  0.370E-03
  39.687  0.364E-03  0.364E-03
  39.702  0.358E-03  0.358E-03
  39.717  0.351E-03  0.351E-03
  39.732  0.343E-03  0.343E-03
  39.747  0.335E-03  0.335E-03
  39.762  0.327E-03  0.327E-03
  39.777  0.318E-03  0.318E-03
  39.792  0.308E-03  0.308E-03
  39.807  0.299E-03  0.299E-03
  39.822  0.289E-03  0.289E-03
  39.837  0.279E-03  0.279E-03
  39.852  0.270E-03  0.270E-03
  39.867  0.260E-03  0.260E-03
  39.882  0.251E-03  0.251E-03
  39.897  0.242E-03  0.242E-03
  39.912  0.233E-03  0.233E-03
  39.927  0.225E-03  0.225E-03
  39.942  0.217E-03  0.217E-03
  39.957  0.209E-03  0.209E-03
  39.972  0.201E-03  0.201E-03
  39.987  0.194E-03  0.194E-03
  40.002  0.188E-03  0.188E-03
  40.017  0.181E-03  0.181E-03
  40.032  0.175E-03  0.175E-03
  40.047  0.170E-03  0.170E-03
  40.062  0.164E-03  0.164E-03
  40.077  0.159E-03  0.159E-03
  40.092  0.155E-03  0.155E-03
  40.107  0.150E-03  0.150E-03
  40.122  0.146E-03  0.146E-03
  40.137  0.142E-03  0.142E-03
  40.152  0.138E-03  0.138E-03
  40.167  0.134E-03  0.134E-03
  40.182  0.131E-03  0.131E-03
  40.197  0.128E-03  0.128E-03
  40.212  0.125E-03  0.125E-03
  40.227  0.122E-03  0.122E-03
  40.242  0.120E-03  0.120E-03
  40.257  0.117E-03  0.117E-03
  40.272  0.115E-03  0.115E-03
  40.287  0.113E-03  0.113E-03
  40.302  0.111E-03  0.111E-03
  40.317  0.110E-03  0.110E-03
  40.332  0.109E-03  0.109E-03
  40.347  0.108E-03  0.108E-03
  40.362  0.108E-03  0.108E-03
  40.377  0.107E-03  0.107E-03
  40.392  0.108E-03  0.108E-03
  40.407  0.108E-03  0.108E-03
  40.422  0.109E-03  0.109E-03
  40.437  0.110E-03  0.110E-03
  40.452  0.112E-03  0.112E-03
  40.467  0.114E-03  0.114E-03
  40.482  0.117E-03  0.117E-03
  40.497  0.120E-03  0.120E-03
  40.512  0.123E-03  0.123E-03
  40.527  0.127E-03  0.127E-03
  40.542  0.131E-03  0.131E-03
  40.557  0.135E-03  0.135E-03
  40.572  0.140E-03  0.140E-03
  40.587  0.145E-03  0.145E-03
  40.602  0.151E-03  0.151E-03
  40.617  0.156E-03  0.156E-03
  40.632  0.162E-03  0.162E-03
  40.647  0.168E-03  0.168E-03
  40.662  0.173E-03  0.173E-03
  40.677  0.179E-03  0.179E-03
  40.692  0.185E-03  0.185E-03
  40.707  0.190E-03  0.190E-03
  40.722  0.196E-03  0.196E-03
  40.737  0.200E-03  0.200E-03
  40.752  0.205E-03  0.205E-03
  40.767  0.209E-03  0.209E-03
  40.782  0.213E-03  0.213E-03
  40.797  0.216E-03  0.216E-03
  40.812  0.219E-03  0.219E-03
  40.827  0.221E-03  0.221E-03
  40.842  0.222E-03  0.222E-03
  40.857  0.223E-03  0.223E-03
  40.872  0.223E-03  0.223E-03
  40.887  0.223E-03  0.223E-03
  40.902  0.222E-03  0.222E-03
  40.917  0.221E-03  0.221E-03
  40.932  0.219E-03  0.219E-03
  40.947  0.217E-03  0.217E-03
  40.962  0.215E-03  0.215E-03
  40.977  0.212E-03  0.212E-03
  40.992  0.209E-03  0.209E-03
  41.007  0.205E-03  0.205E-03
  41.022  0.202E-03  0.202E-03
  41.037  0.199E-03  0.199E-03
  41.052  0.195E-03  0.195E-03
  41.067  0.192E-03  0.192E-03
  41.082  0.188E-03  0.188E-03
  41.097  0.185E-03  0.185E-03
  41.112  0.182E-03  0.182E-03
  41.127  0.179E-03  0.179E-03
  41.142  0.177E-03  0.177E-03
  41.157  0.175E-03  0.175E-03
  41.172  0.173E-03  0.173E-03
  41.187  0.171E-03  0.171E-03
  41.202  0.170E-03  0.170E-03
  41.217  0.169E-03  0.169E-03
  41.232  0.168E-03  0.168E-03
  41.247  0.168E-03  0.168E-03
  41.262  0.168E-03  0.168E-03
  41.277  0.168E-03  0.168E-03
  41.292  0.168E-03  0.168E-03
  41.307  0.169E-03  0.169E-03
  41.322  0.170E-03  0.170E-03
  41.337  0.170E-03  0.170E-03
  41.352  0.171E-03  0.171E-03
  41.367  0.172E-03  0.172E-03
  41.382  0.173E-03  0.173E-03
  41.397  0.174E-03  0.174E-03
  41.412  0.175E-03  0.175E-03
  41.427  0.176E-03  0.176E-03
  41.442  0.177E-03  0.177E-03
  41.457  0.178E-03  0.178E-03
  41.472  0.179E-03  0.179E-03
  41.487  0.179E-03  0.179E-03
  41.502  0.180E-03  0.180E-03
  41.517  0.180E-03  0.180E-03
  41.532  0.180E-03  0.180E-03
  41.547  0.180E-03  0.180E-03
  41.562  0.180E-03  0.180E-03
  41.577  0.180E-03  0.180E-03
  41.592  0.179E-03  0.179E-03
  41.607  0.179E-03  0.179E-03
  41.622  0.178E-03  0.178E-03
  41.637  0.177E-03  0.177E-03
  41.652  0.177E-03  0.177E-03
  41.667  0.176E-03  0.176E-03
  41.682  0.175E-03  0.175E-03
  41.697  0.174E-03  0.174E-03
  41.712  0.173E-03  0.173E-03
  41.727  0.172E-03  0.172E-03
  41.742  0.171E-03  0.171E-03
  41.757  0.170E-03  0.170E-03
  41.772  0.169E-03  0.169E-03
  41.787  0.168E-03  0.168E-03
  41.802  0.167E-03  0.167E-03
  41.817  0.165E-03  0.165E-03
  41.832  0.164E-03  0.164E-03
  41.847  0.163E-03  0.163E-03
  41.862  0.161E-03  0.161E-03
  41.877  0.160E-03  0.160E-03
  41.892  0.159E-03  0.159E-03
  41.907  0.157E-03  0.157E-03
  41.922  0.156E-03  0.156E-03
  41.937  0.154E-03  0.154E-03
  41.952  0.153E-03  0.153E-03
  41.967  0.152E-03  0.152E-03
  41.982  0.151E-03  0.151E-03
  41.997  0.150E-03  0.150E-03
  42.012  0.149E-03  0.149E-03
  42.027  0.148E-03  0.148E-03
  42.042  0.147E-03  0.147E-03
  42.057  0.147E-03  0.147E-03
  42.072  0.146E-03  0.146E-03
  42.087  0.146E-03  0.146E-03
  42.102  0.146E-03  0.146E-03
  42.117  0.146E-03  0.146E-03
  42.132  0.146E-03  0.146E-03
  42.147  0.147E-03  0.147E-03
  42.162  0.148E-03  0.148E-03
  42.177  0.148E-03  0.148E-03
  42.192  0.149E-03  0.149E-03
  42.207  0.150E-03  0.150E-03
  42.222  0.152E-03  0.152E-03
  42.237  0.153E-03  0.153E-03
  42.252  0.154E-03  0.154E-03
  42.267  0.155E-03  0.155E-03
  42.282  0.156E-03  0.156E-03
  42.297  0.157E-03  0.157E-03
  42.312  0.158E-03  0.158E-03
  42.327  0.159E-03  0.159E-03
  42.342  0.160E-03  0.160E-03
  42.357  0.160E-03  0.160E-03
  42.372  0.161E-03  0.161E-03
  42.387  0.161E-03  0.161E-03
  42.402  0.161E-03  0.161E-03
  42.417  0.160E-03  0.160E-03
  42.432  0.160E-03  0.160E-03
  42.447  0.159E-03  0.159E-03
  42.462  0.158E-03  0.158E-03
  42.477  0.157E-03  0.157E-03
  42.492  0.155E-03  0.155E-03
  42.507  0.154E-03  0.154E-03
  42.522  0.152E-03  0.152E-03
  42.537  0.150E-03  0.150E-03
  42.552  0.148E-03  0.148E-03
  42.567  0.145E-03  0.145E-03
  42.582  0.143E-03  0.143E-03
  42.597  0.141E-03  0.141E-03
  42.612  0.138E-03  0.138E-03
  42.627  0.136E-03  0.136E-03
  42.642  0.134E-03  0.134E-03
  42.657  0.131E-03  0.131E-03
  42.672  0.129E-03  0.129E-03
  42.687  0.127E-03  0.127E-03
  42.702  0.124E-03  0.124E-03
  42.717  0.122E-03  0.122E-03
  42.732  0.120E-03  0.120E-03
  42.747  0.119E-03  0.119E-03
  42.762  0.117E-03  0.117E-03
  42.777  0.115E-03  0.115E-03
  42.792  0.114E-03  0.114E-03
  42.807  0.113E-03  0.113E-03
  42.822  0.112E-03  0.112E-03
  42.837  0.111E-03  0.111E-03
  42.852  0.110E-03  0.110E-03
  42.867  0.109E-03  0.109E-03
  42.882  0.109E-03  0.109E-03
  42.897  0.109E-03  0.109E-03
  42.912  0.109E-03  0.109E-03
  42.927  0.109E-03  0.109E-03
  42.942  0.109E-03  0.109E-03
  42.957  0.109E-03  0.109E-03
  42.972  0.110E-03  0.110E-03
  42.987  0.111E-03  0.111E-03
  43.002  0.112E-03  0.112E-03
  43.017  0.113E-03  0.113E-03
  43.032  0.114E-03  0.114E-03
  43.047  0.115E-03  0.115E-03
  43.062  0.117E-03  0.117E-03
  43.077  0.118E-03  0.118E-03
  43.092  0.120E-03  0.120E-03
  43.107  0.121E-03  0.121E-03
  43.122  0.123E-03  0.123E-03
  43.137  0.125E-03  0.125E-03
  43.152  0.126E-03  0.126E-03
  43.167  0.128E-03  0.128E-03
  43.182  0.129E-03  0.129E-03
  43.197  0.130E-03  0.130E-03
  43.212  0.131E-03  0.131E-03
  43.227  0.132E-03  0.132E-03
  43.242  0.133E-03  0.133E-03
  43.257  0.133E-03  0.133E-03
  43.272  0.133E-03  0.133E-03
  43.287  0.133E-03  0.133E-03
  43.302  0.132E-03  0.132E-03
  43.317  0.131E-03  0.131E-03
  43.332  0.130E-03  0.130E-03
  43.347  0.129E-03  0.129E-03
  43.362  0.127E-03  0.127E-03
  43.377  0.125E-03  0.125E-03
  43.392  0.122E-03  0.122E-03
  43.407  0.120E-03  0.120E-03
  43.422  0.117E-03  0.117E-03
  43.437  0.114E-03  0.114E-03
  43.452  0.110E-03  0.110E-03
  43.467  0.107E-03  0.107E-03
  43.482  0.103E-03  0.103E-03
  43.497  0.998E-04  0.998E-04
  43.512  0.961E-04  0.961E-04
  43.527  0.924E-04  0.924E-04
  43.542  0.887E-04  0.887E-04
  43.557  0.850E-04  0.850E-04
  43.572  0.814E-04  0.814E-04
  43.587  0.780E-04  0.780E-04
  43.602  0.746E-04  0.746E-04
  43.617  0.714E-04  0.714E-04
  43.632  0.683E-04  0.683E-04
  43.647  0.654E-04  0.654E-04
  43.662  0.627E-04  0.627E-04
  43.677  0.601E-04  0.601E-04
  43.692  0.577E-04  0.577E-04
  43.707  0.555E-04  0.555E-04
  43.722  0.535E-04  0.535E-04
  43.737  0.516E-04  0.516E-04
  43.752  0.499E-04  0.499E-04
  43.767  0.483E-04  0.483E-04
  43.782  0.469E-04  0.469E-04
  43.797  0.456E-04  0.456E-04
  43.812  0.444E-04  0.444E-04
  43.827  0.433E-04  0.433E-04
  43.842  0.424E-04  0.424E-04
  43.857  0.415E-04  0.415E-04
  43.872  0.407E-04  0.407E-04
  43.887  0.400E-04  0.400E-04
  43.902  0.393E-04  0.393E-04
  43.917  0.387E-04  0.387E-04
  43.932  0.382E-04  0.382E-04
  43.947  0.377E-04  0.377E-04
  43.962  0.372E-04  0.372E-04
  43.977  0.367E-04  0.367E-04
  43.992  0.363E-04  0.363E-04
  44.007  0.359E-04  0.359E-04
  44.022  0.356E-04  0.356E-04
  44.037  0.352E-04  0.352E-04
  44.052  0.349E-04  0.349E-04
  44.067  0.346E-04  0.346E-04
  44.082  0.342E-04  0.342E-04
  44.097  0.339E-04  0.339E-04
  44.112  0.336E-04  0.336E-04
  44.127  0.333E-04  0.333E-04
  44.142  0.330E-04  0.330E-04
  44.157  0.327E-04  0.327E-04
  44.172  0.324E-04  0.324E-04
  44.187  0.321E-04  0.321E-04
  44.202  0.318E-04  0.318E-04
  44.217  0.315E-04  0.315E-04
  44.232  0.312E-04  0.312E-04
  44.247  0.309E-04  0.309E-04
  44.262  0.306E-04  0.306E-04
  44.277  0.302E-04  0.302E-04
  44.292  0.299E-04  0.299E-04
  44.307  0.296E-04  0.296E-04
  44.322  0.293E-04  0.293E-04
  44.337  0.290E-04  0.290E-04
  44.352  0.287E-04  0.287E-04
  44.367  0.284E-04  0.284E-04
  44.382  0.281E-04  0.281E-04
  44.397  0.278E-04  0.278E-04
  44.412  0.275E-04  0.275E-04
  44.427  0.272E-04  0.272E-04
  44.442  0.270E-04  0.270E-04
  44.457  0.267E-04  0.267E-04
  44.472  0.265E-04  0.265E-04
  44.487  0.262E-04  0.262E-04
  44.502  0.260E-04  0.260E-04
  44.517  0.257E-04  0.257E-04
  44.532  0.255E-04  0.255E-04
  44.547  0.252E-04  0.252E-04
  44.562  0.250E-04  0.250E-04
  44.577  0.247E-04  0.247E-04
  44.592  0.245E-04  0.245E-04
  44.607  0.242E-04  0.242E-04
  44.622  0.239E-04  0.239E-04
  44.637  0.236E-04  0.236E-04
  44.652  0.232E-04  0.232E-04
  44.667  0.229E-04  0.229E-04
  44.682  0.225E-04  0.225E-04
  44.697  0.221E-04  0.221E-04
  44.712  0.217E-04  0.217E-04
  44.727  0.212E-04  0.212E-04
  44.742  0.208E-04  0.208E-04
  44.757  0.203E-04  0.203E-04
  44.772  0.197E-04  0.197E-04
  44.787  0.192E-04  0.192E-04
  44.802  0.186E-04  0.186E-04
  44.817  0.180E-04  0.180E-04
  44.832  0.174E-04  0.174E-04
  44.847  0.168E-04  0.168E-04
  44.862  0.162E-04  0.162E-04
  44.877  0.155E-04  0.155E-04
  44.892  0.149E-04  0.149E-04
  44.907  0.143E-04  0.143E-04
  44.922  0.136E-04  0.136E-04
  44.937  0.130E-04  0.130E-04
  44.952  0.124E-04  0.124E-04
  44.967  0.118E-04  0.118E-04
  44.982  0.112E-04  0.112E-04
  44.997  0.106E-04  0.106E-04
  45.012  0.100E-04  0.100E-04
  45.027  0.948E-05  0.948E-05
  45.042  0.895E-05  0.895E-05
  45.057  0.844E-05  0.844E-05
  45.072  0.795E-05  0.795E-05
  45.087  0.748E-05  0.748E-05
  45.102  0.703E-05  0.703E-05
  45.117  0.660E-05  0.660E-05
  45.132  0.619E-05  0.619E-05
  45.147  0.580E-05  0.580E-05
  45.162  0.544E-05  0.544E-05
  45.177  0.509E-05  0.509E-05
  45.192  0.476E-05  0.476E-05
  45.207  0.445E-05  0.445E-05
  45.222  0.416E-05  0.416E-05
  45.237  0.389E-05  0.389E-05
  45.252  0.363E-05  0.363E-05
  45.267  0.339E-05  0.339E-05
  45.282  0.317E-05  0.317E-05
  45.297  0.297E-05  0.297E-05
  45.312  0.277E-05  0.277E-05
  45.327  0.260E-05  0.260E-05
  45.342  0.243E-05  0.243E-05
  45.357  0.228E-05  0.228E-05
  45.372  0.214E-05  0.214E-05
  45.387  0.201E-05  0.201E-05
  45.402  0.189E-05  0.189E-05
  45.417  0.179E-05  0.179E-05
  45.432  0.168E-05  0.168E-05
  45.447  0.159E-05  0.159E-05
  45.462  0.150E-05  0.150E-05
  45.477  0.142E-05  0.142E-05
  45.492  0.135E-05  0.135E-05
  45.507  0.127E-05  0.127E-05
  45.522  0.120E-05  0.120E-05
  45.537  0.114E-05  0.114E-05
  45.552  0.107E-05  0.107E-05
  45.567  0.101E-05  0.101E-05
  45.582  0.952E-06  0.952E-06
  45.597  0.893E-06  0.893E-06
  45.612  0.836E-06  0.836E-06
  45.627  0.780E-06  0.780E-06
  45.642  0.725E-06  0.725E-06
  45.657  0.672E-06  0.672E-06
  45.672  0.620E-06  0.620E-06
  45.687  0.570E-06  0.570E-06
  45.702  0.522E-06  0.522E-06
  45.717  0.475E-06  0.475E-06
  45.732  0.430E-06  0.430E-06
  45.747  0.388E-06  0.388E-06
  45.762  0.348E-06  0.348E-06
  45.777  0.311E-06  0.311E-06
  45.792  0.276E-06  0.276E-06
  45.807  0.244E-06  0.244E-06
  45.822  0.214E-06  0.214E-06
  45.837  0.187E-06  0.187E-06
  45.852  0.162E-06  0.162E-06
  45.867  0.140E-06  0.140E-06
  45.882  0.120E-06  0.120E-06
  45.897  0.103E-06  0.103E-06
  45.912  0.872E-07  0.872E-07
  45.927  0.736E-07  0.736E-07
  45.942  0.617E-07  0.617E-07
  45.957  0.515E-07  0.515E-07
  45.972  0.427E-07  0.427E-07
  45.987  0.351E-07  0.351E-07
  46.002  0.288E-07  0.288E-07
  46.017  0.234E-07  0.234E-07
  46.032  0.190E-07  0.190E-07
  46.047  0.153E-07  0.153E-07
  46.062  0.122E-07  0.122E-07
  46.077  0.970E-08  0.970E-08
  46.092  0.766E-08  0.766E-08
  46.107  0.602E-08  0.602E-08
  46.122  0.469E-08  0.469E-08
  46.137  0.364E-08  0.364E-08
  46.152  0.281E-08  0.281E-08
  46.167  0.215E-08  0.215E-08
  46.182  0.164E-08  0.164E-08
  46.197  0.124E-08  0.124E-08
  46.212  0.935E-09  0.935E-09
  46.227  0.700E-09  0.700E-09
  46.242  0.520E-09  0.520E-09
  46.257  0.384E-09  0.384E-09
  46.272  0.282E-09  0.282E-09
  46.287  0.206E-09  0.206E-09
  46.302  0.150E-09  0.150E-09
  46.317  0.108E-09  0.108E-09
  46.332  0.774E-10  0.774E-10
