# E (eV)   ldos(E)   pdos(E)   
 -10.638  0.108E-04  0.108E-04
 -10.623  0.151E-04  0.151E-04
 -10.608  0.209E-04  0.209E-04
 -10.593  0.289E-04  0.289E-04
 -10.578  0.396E-04  0.396E-04
 -10.563  0.539E-04  0.539E-04
 -10.548  0.730E-04  0.730E-04
 -10.533  0.982E-04  0.982E-04
 -10.518  0.131E-03  0.131E-03
 -10.503  0.175E-03  0.175E-03
 -10.488  0.231E-03  0.231E-03
 -10.473  0.303E-03  0.303E-03
 -10.458  0.396E-03  0.396E-03
 -10.443  0.514E-03  0.514E-03
 -10.428  0.664E-03  0.664E-03
 -10.413  0.851E-03  0.851E-03
 -10.398  0.109E-02  0.109E-02
 -10.383  0.138E-02  0.138E-02
 -10.368  0.173E-02  0.173E-02
 -10.353  0.217E-02  0.217E-02
 -10.338  0.270E-02  0.270E-02
 -10.323  0.335E-02  0.335E-02
 -10.308  0.412E-02  0.412E-02
 -10.293  0.503E-02  0.503E-02
 -10.278  0.612E-02  0.612E-02
 -10.263  0.739E-02  0.739E-02
 -10.248  0.888E-02  0.888E-02
 -10.233  0.106E-01  0.106E-01
 -10.218  0.126E-01  0.126E-01
 -10.203  0.149E-01  0.149E-01
 -10.188  0.174E-01  0.174E-01
 -10.173  0.203E-01  0.203E-01
 -10.158  0.236E-01  0.236E-01
 -10.143  0.271E-01  0.271E-01
 -10.128  0.311E-01  0.311E-01
 -10.113  0.354E-01  0.354E-01
 -10.098  0.401E-01  0.401E-01
 -10.083  0.452E-01  0.452E-01
 -10.068  0.506E-01  0.506E-01
 -10.053  0.563E-01  0.563E-01
 -10.038  0.622E-01  0.622E-01
 -10.023  0.685E-01  0.685E-01
 -10.008  0.749E-01  0.749E-01
  -9.993  0.814E-01  0.814E-01
  -9.978  0.880E-01  0.880E-01
  -9.963  0.947E-01  0.947E-01
  -9.948  0.101E+00  0.101E+00
  -9.933  0.108E+00  0.108E+00
  -9.918  0.114E+00  0.114E+00
  -9.903  0.120E+00  0.120E+00
  -9.888  0.125E+00  0.125E+00
  -9.873  0.130E+00  0.130E+00
  -9.858  0.134E+00  0.134E+00
  -9.843  0.138E+00  0.138E+00
  -9.828  0.141E+00  0.141E+00
  -9.813  0.144E+00  0.144E+00
  -9.798  0.146E+00  0.146E+00
  -9.783  0.147E+00  0.147E+00
  -9.768  0.147E+00  0.147E+00
  -9.753  0.147E+00  0.147E+00
  -9.738  0.146E+00  0.146E+00
  -9.723  0.144E+00  0.144E+00
  -9.708  0.141E+00  0.141E+00
  -9.693  0.138E+00  0.138E+00
  -9.678  0.135E+00  0.135E+00
  -9.663  0.131E+00  0.131E+00
  -9.648  0.126E+00  0.126E+00
  -9.633  0.121E+00  0.121E+00
  -9.618  0.116E+00  0.116E+00
  -9.603  0.111E+00  0.111E+00
  -9.588  0.105E+00  0.105E+00
  -9.573  0.997E-01  0.997E-01
  -9.558  0.941E-01  0.941E-01
  -9.543  0.884E-01  0.884E-01
  -9.528  0.829E-01  0.829E-01
  -9.513  0.774E-01  0.774E-01
  -9.498  0.721E-01  0.721E-01
  -9.483  0.670E-01  0.670E-01
  -9.468  0.620E-01  0.620E-01
  -9.453  0.572E-01  0.572E-01
  -9.438  0.527E-01  0.527E-01
  -9.423  0.484E-01  0.484E-01
  -9.408  0.443E-01  0.443E-01
  -9.393  0.405E-01  0.405E-01
  -9.378  0.368E-01  0.368E-01
  -9.363  0.335E-01  0.335E-01
  -9.348  0.303E-01  0.303E-01
  -9.333  0.274E-01  0.274E-01
  -9.318  0.246E-01  0.246E-01
  -9.303  0.221E-01  0.221E-01
  -9.288  0.198E-01  0.198E-01
  -9.273  0.177E-01  0.177E-01
  -9.258  0.157E-01  0.157E-01
  -9.243  0.139E-01  0.139E-01
  -9.228  0.123E-01  0.123E-01
  -9.213  0.108E-01  0.108E-01
  -9.198  0.947E-02  0.947E-02
  -9.183  0.827E-02  0.827E-02
  -9.168  0.719E-02  0.719E-02
  -9.153  0.622E-02  0.622E-02
  -9.138  0.537E-02  0.537E-02
  -9.123  0.461E-02  0.461E-02
  -9.108  0.394E-02  0.394E-02
  -9.093  0.335E-02  0.335E-02
  -9.078  0.284E-02  0.284E-02
  -9.063  0.240E-02  0.240E-02
  -9.048  0.201E-02  0.201E-02
  -9.033  0.168E-02  0.168E-02
  -9.018  0.140E-02  0.140E-02
  -9.003  0.116E-02  0.116E-02
  -8.988  0.953E-03  0.953E-03
  -8.973  0.780E-03  0.780E-03
  -8.958  0.636E-03  0.636E-03
  -8.943  0.516E-03  0.516E-03
  -8.928  0.417E-03  0.417E-03
  -8.913  0.335E-03  0.335E-03
  -8.898  0.267E-03  0.267E-03
  -8.883  0.212E-03  0.212E-03
  -8.868  0.168E-03  0.168E-03
  -8.853  0.132E-03  0.132E-03
  -8.838  0.103E-03  0.103E-03
  -8.823  0.806E-04  0.806E-04
  -8.808  0.624E-04  0.624E-04
  -8.793  0.481E-04  0.481E-04
  -8.778  0.369E-04  0.369E-04
  -8.763  0.281E-04  0.281E-04
  -8.748  0.213E-04  0.213E-04
  -8.733  0.161E-04  0.161E-04
  -8.718  0.121E-04  0.121E-04
  -8.703  0.903E-05  0.903E-05
  -8.688  0.671E-05  0.671E-05
  -8.673  0.496E-05  0.496E-05
  -8.658  0.365E-05  0.365E-05
  -8.643  0.267E-05  0.267E-05
  -8.628  0.194E-05  0.194E-05
  -8.613  0.141E-05  0.141E-05
  -8.598  0.101E-05  0.101E-05
  -8.583  0.725E-06  0.725E-06
  -8.568  0.517E-06  0.517E-06
  -8.553  0.366E-06  0.366E-06
  -8.538  0.258E-06  0.258E-06
  -8.523  0.181E-06  0.181E-06
  -8.508  0.127E-06  0.127E-06
  -8.493  0.879E-07  0.879E-07
  -8.478  0.607E-07  0.607E-07
  -8.463  0.418E-07  0.418E-07
  -8.448  0.287E-07  0.287E-07
  -8.433  0.196E-07  0.196E-07
  -8.418  0.135E-07  0.135E-07
  -8.403  0.948E-08  0.948E-08
  -8.388  0.692E-08  0.692E-08
  -8.373  0.548E-08  0.548E-08
  -8.358  0.494E-08  0.494E-08
  -8.343  0.521E-08  0.521E-08
  -8.328  0.633E-08  0.633E-08
  -8.313  0.845E-08  0.845E-08
  -8.298  0.118E-07  0.118E-07
  -8.283  0.169E-07  0.169E-07
  -8.268  0.243E-07  0.243E-07
  -8.253  0.350E-07  0.350E-07
  -8.238  0.503E-07  0.503E-07
  -8.223  0.718E-07  0.718E-07
  -8.208  0.102E-06  0.102E-06
  -8.193  0.144E-06  0.144E-06
  -8.178  0.202E-06  0.202E-06
  -8.163  0.282E-06  0.282E-06
  -8.148  0.391E-06  0.391E-06
  -8.133  0.539E-06  0.539E-06
  -8.118  0.740E-06  0.740E-06
  -8.103  0.101E-05  0.101E-05
  -8.088  0.137E-05  0.137E-05
  -8.073  0.184E-05  0.184E-05
  -8.058  0.247E-05  0.247E-05
  -8.043  0.329E-05  0.329E-05
  -8.028  0.436E-05  0.436E-05
  -8.013  0.574E-05  0.574E-05
  -7.998  0.751E-05  0.751E-05
  -7.983  0.978E-05  0.978E-05
  -7.968  0.127E-04  0.127E-04
  -7.953  0.163E-04  0.163E-04
  -7.938  0.209E-04  0.209E-04
  -7.923  0.265E-04  0.265E-04
  -7.908  0.336E-04  0.336E-04
  -7.893  0.423E-04  0.423E-04
  -7.878  0.529E-04  0.529E-04
  -7.863  0.658E-04  0.658E-04
  -7.848  0.814E-04  0.814E-04
  -7.833  0.100E-03  0.100E-03
  -7.818  0.123E-03  0.123E-03
  -7.803  0.149E-03  0.149E-03
  -7.788  0.180E-03  0.180E-03
  -7.773  0.217E-03  0.217E-03
  -7.758  0.260E-03  0.260E-03
  -7.743  0.309E-03  0.309E-03
  -7.728  0.366E-03  0.366E-03
  -7.713  0.431E-03  0.431E-03
  -7.698  0.505E-03  0.505E-03
  -7.683  0.589E-03  0.589E-03
  -7.668  0.682E-03  0.682E-03
  -7.653  0.787E-03  0.787E-03
  -7.638  0.902E-03  0.902E-03
  -7.623  0.103E-02  0.103E-02
  -7.608  0.117E-02  0.117E-02
  -7.593  0.132E-02  0.132E-02
  -7.578  0.148E-02  0.148E-02
  -7.563  0.166E-02  0.166E-02
  -7.548  0.185E-02  0.185E-02
  -7.533  0.204E-02  0.204E-02
  -7.518  0.225E-02  0.225E-02
  -7.503  0.247E-02  0.247E-02
  -7.488  0.270E-02  0.270E-02
  -7.473  0.293E-02  0.293E-02
  -7.458  0.317E-02  0.317E-02
  -7.443  0.341E-02  0.341E-02
  -7.428  0.366E-02  0.366E-02
  -7.413  0.390E-02  0.390E-02
  -7.398  0.415E-02  0.415E-02
  -7.383  0.439E-02  0.439E-02
  -7.368  0.463E-02  0.463E-02
  -7.353  0.486E-02  0.486E-02
  -7.338  0.508E-02  0.508E-02
  -7.323  0.530E-02  0.530E-02
  -7.308  0.550E-02  0.550E-02
  -7.293  0.569E-02  0.569E-02
  -7.278  0.586E-02  0.586E-02
  -7.263  0.602E-02  0.602E-02
  -7.248  0.616E-02  0.616E-02
  -7.233  0.629E-02  0.629E-02
  -7.218  0.641E-02  0.641E-02
  -7.203  0.650E-02  0.650E-02
  -7.188  0.658E-02  0.658E-02
  -7.173  0.665E-02  0.665E-02
  -7.158  0.670E-02  0.670E-02
  -7.143  0.674E-02  0.674E-02
  -7.128  0.676E-02  0.676E-02
  -7.113  0.677E-02  0.677E-02
  -7.098  0.677E-02  0.677E-02
  -7.083  0.676E-02  0.676E-02
  -7.068  0.675E-02  0.675E-02
  -7.053  0.672E-02  0.672E-02
  -7.038  0.669E-02  0.669E-02
  -7.023  0.666E-02  0.666E-02
  -7.008  0.662E-02  0.662E-02
  -6.993  0.659E-02  0.659E-02
  -6.978  0.655E-02  0.655E-02
  -6.963  0.651E-02  0.651E-02
  -6.948  0.647E-02  0.647E-02
  -6.933  0.644E-02  0.644E-02
  -6.918  0.641E-02  0.641E-02
  -6.903  0.639E-02  0.639E-02
  -6.888  0.637E-02  0.637E-02
  -6.873  0.636E-02  0.636E-02
  -6.858  0.636E-02  0.636E-02
  -6.843  0.636E-02  0.636E-02
  -6.828  0.637E-02  0.637E-02
  -6.813  0.639E-02  0.639E-02
  -6.798  0.641E-02  0.641E-02
  -6.783  0.644E-02  0.644E-02
  -6.768  0.648E-02  0.648E-02
  -6.753  0.653E-02  0.653E-02
  -6.738  0.658E-02  0.658E-02
  -6.723  0.663E-02  0.663E-02
  -6.708  0.669E-02  0.669E-02
  -6.693  0.675E-02  0.675E-02
  -6.678  0.680E-02  0.680E-02
  -6.663  0.686E-02  0.686E-02
  -6.648  0.691E-02  0.691E-02
  -6.633  0.695E-02  0.695E-02
  -6.618  0.699E-02  0.699E-02
  -6.603  0.702E-02  0.702E-02
  -6.588  0.703E-02  0.703E-02
  -6.573  0.703E-02  0.703E-02
  -6.558  0.702E-02  0.702E-02
  -6.543  0.699E-02  0.699E-02
  -6.528  0.694E-02  0.694E-02
  -6.513  0.687E-02  0.687E-02
  -6.498  0.678E-02  0.678E-02
  -6.483  0.667E-02  0.667E-02
  -6.468  0.654E-02  0.654E-02
  -6.453  0.639E-02  0.639E-02
  -6.438  0.623E-02  0.623E-02
  -6.423  0.604E-02  0.604E-02
  -6.408  0.584E-02  0.584E-02
  -6.393  0.563E-02  0.563E-02
  -6.378  0.540E-02  0.540E-02
  -6.363  0.517E-02  0.517E-02
  -6.348  0.492E-02  0.492E-02
  -6.333  0.467E-02  0.467E-02
  -6.318  0.441E-02  0.441E-02
  -6.303  0.415E-02  0.415E-02
  -6.288  0.390E-02  0.390E-02
  -6.273  0.364E-02  0.364E-02
  -6.258  0.339E-02  0.339E-02
  -6.243  0.315E-02  0.315E-02
  -6.228  0.291E-02  0.291E-02
  -6.213  0.269E-02  0.269E-02
  -6.198  0.247E-02  0.247E-02
  -6.183  0.226E-02  0.226E-02
  -6.168  0.207E-02  0.207E-02
  -6.153  0.189E-02  0.189E-02
  -6.138  0.172E-02  0.172E-02
  -6.123  0.156E-02  0.156E-02
  -6.108  0.141E-02  0.141E-02
  -6.093  0.128E-02  0.128E-02
  -6.078  0.116E-02  0.116E-02
  -6.063  0.104E-02  0.104E-02
  -6.048  0.940E-03  0.940E-03
  -6.033  0.847E-03  0.847E-03
  -6.018  0.762E-03  0.762E-03
  -6.003  0.686E-03  0.686E-03
  -5.988  0.617E-03  0.617E-03
  -5.973  0.554E-03  0.554E-03
  -5.958  0.498E-03  0.498E-03
  -5.943  0.447E-03  0.447E-03
  -5.928  0.401E-03  0.401E-03
  -5.913  0.360E-03  0.360E-03
  -5.898  0.323E-03  0.323E-03
  -5.883  0.289E-03  0.289E-03
  -5.868  0.259E-03  0.259E-03
  -5.853  0.232E-03  0.232E-03
  -5.838  0.207E-03  0.207E-03
  -5.823  0.184E-03  0.184E-03
  -5.808  0.164E-03  0.164E-03
  -5.793  0.146E-03  0.146E-03
  -5.778  0.129E-03  0.129E-03
  -5.763  0.114E-03  0.114E-03
  -5.748  0.101E-03  0.101E-03
  -5.733  0.884E-04  0.884E-04
  -5.718  0.775E-04  0.775E-04
  -5.703  0.677E-04  0.677E-04
  -5.688  0.589E-04  0.589E-04
  -5.673  0.511E-04  0.511E-04
  -5.658  0.441E-04  0.441E-04
  -5.643  0.380E-04  0.380E-04
  -5.628  0.326E-04  0.326E-04
  -5.613  0.278E-04  0.278E-04
  -5.598  0.236E-04  0.236E-04
  -5.583  0.200E-04  0.200E-04
  -5.568  0.169E-04  0.169E-04
  -5.553  0.142E-04  0.142E-04
  -5.538  0.118E-04  0.118E-04
  -5.523  0.983E-05  0.983E-05
  -5.508  0.813E-05  0.813E-05
  -5.493  0.669E-05  0.669E-05
  -5.478  0.549E-05  0.549E-05
  -5.463  0.447E-05  0.447E-05
  -5.448  0.363E-05  0.363E-05
  -5.433  0.293E-05  0.293E-05
  -5.418  0.236E-05  0.236E-05
  -5.403  0.188E-05  0.188E-05
  -5.388  0.150E-05  0.150E-05
  -5.373  0.119E-05  0.119E-05
  -5.358  0.934E-06  0.934E-06
  -5.343  0.731E-06  0.731E-06
  -5.328  0.570E-06  0.570E-06
  -5.313  0.442E-06  0.442E-06
  -5.298  0.340E-06  0.340E-06
  -5.283  0.261E-06  0.261E-06
  -5.268  0.199E-06  0.199E-06
  -5.253  0.151E-06  0.151E-06
  -5.238  0.114E-06  0.114E-06
  -5.223  0.857E-07  0.857E-07
  -5.208  0.640E-07  0.640E-07
  -5.193  0.475E-07  0.475E-07
  -5.178  0.351E-07  0.351E-07
  -5.163  0.258E-07  0.258E-07
  -5.148  0.188E-07  0.188E-07
  -5.133  0.137E-07  0.137E-07
  -5.118  0.989E-08  0.989E-08
  -5.103  0.711E-08  0.711E-08
  -5.088  0.508E-08  0.508E-08
  -5.073  0.361E-08  0.361E-08
  -5.058  0.255E-08  0.255E-08
  -5.043  0.179E-08  0.179E-08
  -5.028  0.125E-08  0.125E-08
  -5.013  0.871E-09  0.871E-09
  -4.998  0.602E-09  0.602E-09
  -4.983  0.414E-09  0.414E-09
  -4.968  0.283E-09  0.283E-09
  -4.953  0.192E-09  0.192E-09
  -4.938  0.130E-09  0.130E-09
  -4.923  0.872E-10  0.872E-10
  -4.908  0.583E-10  0.583E-10
  -4.893  0.387E-10  0.387E-10
  -4.878  0.256E-10  0.256E-10
  -4.863  0.168E-10  0.168E-10
  -4.848  0.110E-10  0.110E-10
  -4.833  0.712E-11  0.712E-11
  -4.818  0.460E-11  0.460E-11
  -4.803  0.295E-11  0.295E-11
  -4.788  0.188E-11  0.188E-11
  -4.773  0.120E-11  0.120E-11
  -4.758  0.754E-12  0.754E-12
  -4.743  0.473E-12  0.473E-12
  -4.728  0.295E-12  0.295E-12
  -4.713  0.183E-12  0.183E-12
  -4.698  0.113E-12  0.113E-12
  -4.683  0.690E-13  0.690E-13
  -4.668  0.421E-13  0.421E-13
  -4.653  0.253E-13  0.253E-13
  -4.638  0.152E-13  0.152E-13
  -4.623  0.891E-14  0.891E-14
  -4.608  0.531E-14  0.531E-14
  -4.593  0.297E-14  0.297E-14
  -4.578  0.175E-14  0.175E-14
  -4.563  0.909E-15  0.909E-15
  -4.548  0.532E-15  0.532E-15
  -4.533  0.246E-15  0.246E-15
  -4.518  0.143E-15  0.143E-15
  -4.503  0.559E-16  0.559E-16
  -4.488  0.173E-16  0.173E-16
  -4.473  0.382E-17  0.382E-17
  -4.458  0.747E-34  0.747E-34
  -4.443  0.000E+00  0.000E+00
  -4.428  0.000E+00  0.000E+00
  -4.413  0.000E+00  0.000E+00
  -4.398  0.000E+00  0.000E+00
  -4.383  0.000E+00  0.000E+00
  -4.368  0.000E+00  0.000E+00
  -4.353  0.000E+00  0.000E+00
  -4.338  0.000E+00  0.000E+00
  -4.323  0.000E+00  0.000E+00
  -4.308  0.000E+00  0.000E+00
  -4.293  0.000E+00  0.000E+00
  -4.278  0.000E+00  0.000E+00
  -4.263  0.000E+00  0.000E+00
  -4.248  0.000E+00  0.000E+00
  -4.233  0.000E+00  0.000E+00
  -4.218  0.000E+00  0.000E+00
  -4.203  0.000E+00  0.000E+00
  -4.188  0.000E+00  0.000E+00
  -4.173  0.000E+00  0.000E+00
  -4.158  0.000E+00  0.000E+00
  -4.143  0.000E+00  0.000E+00
  -4.128  0.000E+00  0.000E+00
  -4.113  0.000E+00  0.000E+00
  -4.098  0.000E+00  0.000E+00
  -4.083  0.000E+00  0.000E+00
  -4.068  0.000E+00  0.000E+00
  -4.053  0.000E+00  0.000E+00
  -4.038  0.000E+00  0.000E+00
  -4.023  0.000E+00  0.000E+00
  -4.008  0.000E+00  0.000E+00
  -3.993  0.000E+00  0.000E+00
  -3.978  0.000E+00  0.000E+00
  -3.963  0.000E+00  0.000E+00
  -3.948  0.000E+00  0.000E+00
  -3.933  0.000E+00  0.000E+00
  -3.918  0.000E+00  0.000E+00
  -3.903  0.000E+00  0.000E+00
  -3.888  0.000E+00  0.000E+00
  -3.873  0.000E+00  0.000E+00
  -3.858  0.000E+00  0.000E+00
  -3.843  0.000E+00  0.000E+00
  -3.828  0.000E+00  0.000E+00
  -3.813  0.000E+00  0.000E+00
  -3.798  0.000E+00  0.000E+00
  -3.783  0.000E+00  0.000E+00
  -3.768  0.000E+00  0.000E+00
  -3.753  0.000E+00  0.000E+00
  -3.738  0.000E+00  0.000E+00
  -3.723  0.000E+00  0.000E+00
  -3.708  0.000E+00  0.000E+00
  -3.693  0.000E+00  0.000E+00
  -3.678  0.000E+00  0.000E+00
  -3.663  0.000E+00  0.000E+00
  -3.648  0.000E+00  0.000E+00
  -3.633  0.000E+00  0.000E+00
  -3.618  0.000E+00  0.000E+00
  -3.603  0.000E+00  0.000E+00
  -3.588  0.000E+00  0.000E+00
  -3.573  0.000E+00  0.000E+00
  -3.558  0.000E+00  0.000E+00
  -3.543  0.000E+00  0.000E+00
  -3.528  0.000E+00  0.000E+00
  -3.513  0.000E+00  0.000E+00
  -3.498  0.000E+00  0.000E+00
  -3.483  0.000E+00  0.000E+00
  -3.468  0.000E+00  0.000E+00
  -3.453  0.000E+00  0.000E+00
  -3.438  0.000E+00  0.000E+00
  -3.423  0.000E+00  0.000E+00
  -3.408  0.000E+00  0.000E+00
  -3.393  0.000E+00  0.000E+00
  -3.378  0.000E+00  0.000E+00
  -3.363  0.000E+00  0.000E+00
  -3.348  0.000E+00  0.000E+00
  -3.333  0.000E+00  0.000E+00
  -3.318  0.000E+00  0.000E+00
  -3.303  0.000E+00  0.000E+00
  -3.288  0.000E+00  0.000E+00
  -3.273  0.000E+00  0.000E+00
  -3.258  0.000E+00  0.000E+00
  -3.243  0.000E+00  0.000E+00
  -3.228  0.000E+00  0.000E+00
  -3.213  0.000E+00  0.000E+00
  -3.198  0.000E+00  0.000E+00
  -3.183  0.000E+00  0.000E+00
  -3.168  0.000E+00  0.000E+00
  -3.153  0.000E+00  0.000E+00
  -3.138  0.000E+00  0.000E+00
  -3.123  0.000E+00  0.000E+00
  -3.108  0.000E+00  0.000E+00
  -3.093  0.000E+00  0.000E+00
  -3.078  0.000E+00  0.000E+00
  -3.063  0.000E+00  0.000E+00
  -3.048  0.000E+00  0.000E+00
  -3.033  0.000E+00  0.000E+00
  -3.018  0.000E+00  0.000E+00
  -3.003  0.000E+00  0.000E+00
  -2.988  0.000E+00  0.000E+00
  -2.973  0.000E+00  0.000E+00
  -2.958  0.000E+00  0.000E+00
  -2.943  0.000E+00  0.000E+00
  -2.928  0.000E+00  0.000E+00
  -2.913  0.000E+00  0.000E+00
  -2.898  0.000E+00  0.000E+00
  -2.883  0.000E+00  0.000E+00
  -2.868  0.000E+00  0.000E+00
  -2.853  0.000E+00  0.000E+00
  -2.838  0.000E+00  0.000E+00
  -2.823  0.000E+00  0.000E+00
  -2.808  0.000E+00  0.000E+00
  -2.793  0.000E+00  0.000E+00
  -2.778  0.000E+00  0.000E+00
  -2.763  0.000E+00  0.000E+00
  -2.748  0.000E+00  0.000E+00
  -2.733  0.000E+00  0.000E+00
  -2.718  0.000E+00  0.000E+00
  -2.703  0.000E+00  0.000E+00
  -2.688  0.000E+00  0.000E+00
  -2.673  0.000E+00  0.000E+00
  -2.658  0.000E+00  0.000E+00
  -2.643  0.000E+00  0.000E+00
  -2.628  0.000E+00  0.000E+00
  -2.613  0.000E+00  0.000E+00
  -2.598  0.000E+00  0.000E+00
  -2.583  0.000E+00  0.000E+00
  -2.568  0.000E+00  0.000E+00
  -2.553  0.000E+00  0.000E+00
  -2.538  0.000E+00  0.000E+00
  -2.523  0.000E+00  0.000E+00
  -2.508  0.000E+00  0.000E+00
  -2.493  0.000E+00  0.000E+00
  -2.478  0.000E+00  0.000E+00
  -2.463  0.000E+00  0.000E+00
  -2.448  0.000E+00  0.000E+00
  -2.433  0.000E+00  0.000E+00
  -2.418  0.000E+00  0.000E+00
  -2.403  0.000E+00  0.000E+00
  -2.388  0.000E+00  0.000E+00
  -2.373  0.000E+00  0.000E+00
  -2.358  0.000E+00  0.000E+00
  -2.343  0.000E+00  0.000E+00
  -2.328  0.000E+00  0.000E+00
  -2.313  0.000E+00  0.000E+00
  -2.298  0.000E+00  0.000E+00
  -2.283  0.000E+00  0.000E+00
  -2.268  0.000E+00  0.000E+00
  -2.253  0.000E+00  0.000E+00
  -2.238  0.000E+00  0.000E+00
  -2.223  0.000E+00  0.000E+00
  -2.208  0.000E+00  0.000E+00
  -2.193  0.000E+00  0.000E+00
  -2.178  0.000E+00  0.000E+00
  -2.163  0.000E+00  0.000E+00
  -2.148  0.000E+00  0.000E+00
  -2.133  0.000E+00  0.000E+00
  -2.118  0.000E+00  0.000E+00
  -2.103  0.000E+00  0.000E+00
  -2.088  0.000E+00  0.000E+00
  -2.073  0.000E+00  0.000E+00
  -2.058  0.000E+00  0.000E+00
  -2.043  0.000E+00  0.000E+00
  -2.028  0.000E+00  0.000E+00
  -2.013  0.000E+00  0.000E+00
  -1.998  0.000E+00  0.000E+00
  -1.983  0.000E+00  0.000E+00
  -1.968  0.000E+00  0.000E+00
  -1.953  0.000E+00  0.000E+00
  -1.938  0.000E+00  0.000E+00
  -1.923  0.000E+00  0.000E+00
  -1.908  0.000E+00  0.000E+00
  -1.893  0.000E+00  0.000E+00
  -1.878  0.000E+00  0.000E+00
  -1.863  0.000E+00  0.000E+00
  -1.848  0.000E+00  0.000E+00
  -1.833  0.000E+00  0.000E+00
  -1.818  0.000E+00  0.000E+00
  -1.803  0.000E+00  0.000E+00
  -1.788  0.000E+00  0.000E+00
  -1.773  0.000E+00  0.000E+00
  -1.758  0.000E+00  0.000E+00
  -1.743  0.000E+00  0.000E+00
  -1.728  0.000E+00  0.000E+00
  -1.713  0.000E+00  0.000E+00
  -1.698  0.000E+00  0.000E+00
  -1.683  0.000E+00  0.000E+00
  -1.668  0.000E+00  0.000E+00
  -1.653  0.000E+00  0.000E+00
  -1.638  0.000E+00  0.000E+00
  -1.623  0.000E+00  0.000E+00
  -1.608  0.000E+00  0.000E+00
  -1.593  0.000E+00  0.000E+00
  -1.578  0.000E+00  0.000E+00
  -1.563  0.000E+00  0.000E+00
  -1.548  0.000E+00  0.000E+00
  -1.533  0.000E+00  0.000E+00
  -1.518  0.000E+00  0.000E+00
  -1.503  0.000E+00  0.000E+00
  -1.488  0.307E-12  0.307E-12
  -1.473  0.893E-12  0.893E-12
  -1.458  0.165E-11  0.165E-11
  -1.443  0.312E-11  0.312E-11
  -1.428  0.544E-11  0.544E-11
  -1.413  0.943E-11  0.943E-11
  -1.398  0.161E-10  0.161E-10
  -1.383  0.271E-10  0.271E-10
  -1.368  0.455E-10  0.455E-10
  -1.353  0.757E-10  0.757E-10
  -1.338  0.125E-09  0.125E-09
  -1.323  0.206E-09  0.206E-09
  -1.308  0.336E-09  0.336E-09
  -1.293  0.546E-09  0.546E-09
  -1.278  0.881E-09  0.881E-09
  -1.263  0.141E-08  0.141E-08
  -1.248  0.225E-08  0.225E-08
  -1.233  0.357E-08  0.357E-08
  -1.218  0.563E-08  0.563E-08
  -1.203  0.881E-08  0.881E-08
  -1.188  0.137E-07  0.137E-07
  -1.173  0.212E-07  0.212E-07
  -1.158  0.326E-07  0.326E-07
  -1.143  0.499E-07  0.499E-07
  -1.128  0.758E-07  0.758E-07
  -1.113  0.115E-06  0.115E-06
  -1.098  0.172E-06  0.172E-06
  -1.083  0.257E-06  0.257E-06
  -1.068  0.381E-06  0.381E-06
  -1.053  0.562E-06  0.562E-06
  -1.038  0.824E-06  0.824E-06
  -1.023  0.120E-05  0.120E-05
  -1.008  0.174E-05  0.174E-05
  -0.993  0.251E-05  0.251E-05
  -0.978  0.359E-05  0.359E-05
  -0.963  0.511E-05  0.511E-05
  -0.948  0.723E-05  0.723E-05
  -0.933  0.102E-04  0.102E-04
  -0.918  0.142E-04  0.142E-04
  -0.903  0.198E-04  0.198E-04
  -0.888  0.273E-04  0.273E-04
  -0.873  0.375E-04  0.375E-04
  -0.858  0.512E-04  0.512E-04
  -0.843  0.695E-04  0.695E-04
  -0.828  0.938E-04  0.938E-04
  -0.813  0.126E-03  0.126E-03
  -0.798  0.168E-03  0.168E-03
  -0.783  0.223E-03  0.223E-03
  -0.768  0.293E-03  0.293E-03
  -0.753  0.385E-03  0.385E-03
  -0.738  0.501E-03  0.501E-03
  -0.723  0.649E-03  0.649E-03
  -0.708  0.836E-03  0.836E-03
  -0.693  0.107E-02  0.107E-02
  -0.678  0.136E-02  0.136E-02
  -0.663  0.172E-02  0.172E-02
  -0.648  0.217E-02  0.217E-02
  -0.633  0.272E-02  0.272E-02
  -0.618  0.338E-02  0.338E-02
  -0.603  0.418E-02  0.418E-02
  -0.588  0.514E-02  0.514E-02
  -0.573  0.629E-02  0.629E-02
  -0.558  0.765E-02  0.765E-02
  -0.543  0.925E-02  0.925E-02
  -0.528  0.111E-01  0.111E-01
  -0.513  0.133E-01  0.133E-01
  -0.498  0.158E-01  0.158E-01
  -0.483  0.188E-01  0.188E-01
  -0.468  0.221E-01  0.221E-01
  -0.453  0.258E-01  0.258E-01
  -0.438  0.301E-01  0.301E-01
  -0.423  0.349E-01  0.349E-01
  -0.408  0.402E-01  0.402E-01
  -0.393  0.462E-01  0.462E-01
  -0.378  0.527E-01  0.527E-01
  -0.363  0.599E-01  0.599E-01
  -0.348  0.677E-01  0.677E-01
  -0.333  0.762E-01  0.762E-01
  -0.318  0.855E-01  0.855E-01
  -0.303  0.954E-01  0.954E-01
  -0.288  0.106E+00  0.106E+00
  -0.273  0.117E+00  0.117E+00
  -0.258  0.129E+00  0.129E+00
  -0.243  0.142E+00  0.142E+00
  -0.228  0.156E+00  0.156E+00
  -0.213  0.170E+00  0.170E+00
  -0.198  0.185E+00  0.185E+00
  -0.183  0.201E+00  0.201E+00
  -0.168  0.217E+00  0.217E+00
  -0.153  0.235E+00  0.235E+00
  -0.138  0.253E+00  0.253E+00
  -0.123  0.272E+00  0.272E+00
  -0.108  0.292E+00  0.292E+00
  -0.093  0.312E+00  0.312E+00
  -0.078  0.334E+00  0.334E+00
  -0.063  0.357E+00  0.357E+00
  -0.048  0.380E+00  0.380E+00
  -0.033  0.405E+00  0.405E+00
  -0.018  0.430E+00  0.430E+00
  -0.003  0.457E+00  0.457E+00
   0.012  0.484E+00  0.484E+00
   0.027  0.512E+00  0.512E+00
   0.042  0.541E+00  0.541E+00
   0.057  0.571E+00  0.571E+00
   0.072  0.600E+00  0.600E+00
   0.087  0.631E+00  0.631E+00
   0.102  0.661E+00  0.661E+00
   0.117  0.691E+00  0.691E+00
   0.132  0.721E+00  0.721E+00
   0.147  0.750E+00  0.750E+00
   0.162  0.778E+00  0.778E+00
   0.177  0.805E+00  0.805E+00
   0.192  0.831E+00  0.831E+00
   0.207  0.854E+00  0.854E+00
   0.222  0.876E+00  0.876E+00
   0.237  0.895E+00  0.895E+00
   0.252  0.911E+00  0.911E+00
   0.267  0.925E+00  0.925E+00
   0.282  0.936E+00  0.936E+00
   0.297  0.944E+00  0.944E+00
   0.312  0.949E+00  0.949E+00
   0.327  0.951E+00  0.951E+00
   0.342  0.950E+00  0.950E+00
   0.357  0.945E+00  0.945E+00
   0.372  0.938E+00  0.938E+00
   0.387  0.929E+00  0.929E+00
   0.402  0.916E+00  0.916E+00
   0.417  0.902E+00  0.902E+00
   0.432  0.885E+00  0.885E+00
   0.447  0.867E+00  0.867E+00
   0.462  0.847E+00  0.847E+00
   0.477  0.826E+00  0.826E+00
   0.492  0.804E+00  0.804E+00
   0.507  0.781E+00  0.781E+00
   0.522  0.758E+00  0.758E+00
   0.537  0.734E+00  0.734E+00
   0.552  0.711E+00  0.711E+00
   0.567  0.688E+00  0.688E+00
   0.582  0.666E+00  0.666E+00
   0.597  0.644E+00  0.644E+00
   0.612  0.623E+00  0.623E+00
   0.627  0.603E+00  0.603E+00
   0.642  0.584E+00  0.584E+00
   0.657  0.566E+00  0.566E+00
   0.672  0.550E+00  0.550E+00
   0.687  0.534E+00  0.534E+00
   0.702  0.520E+00  0.520E+00
   0.717  0.506E+00  0.506E+00
   0.732  0.494E+00  0.494E+00
   0.747  0.483E+00  0.483E+00
   0.762  0.473E+00  0.473E+00
   0.777  0.465E+00  0.465E+00
   0.792  0.457E+00  0.457E+00
   0.807  0.450E+00  0.450E+00
   0.822  0.444E+00  0.444E+00
   0.837  0.439E+00  0.439E+00
   0.852  0.434E+00  0.434E+00
   0.867  0.430E+00  0.430E+00
   0.882  0.427E+00  0.427E+00
   0.897  0.424E+00  0.424E+00
   0.912  0.421E+00  0.421E+00
   0.927  0.419E+00  0.419E+00
   0.942  0.417E+00  0.417E+00
   0.957  0.415E+00  0.415E+00
   0.972  0.413E+00  0.413E+00
   0.987  0.410E+00  0.410E+00
   1.002  0.408E+00  0.408E+00
   1.017  0.405E+00  0.405E+00
   1.032  0.402E+00  0.402E+00
   1.047  0.399E+00  0.399E+00
   1.062  0.395E+00  0.395E+00
   1.077  0.390E+00  0.390E+00
   1.092  0.385E+00  0.385E+00
   1.107  0.380E+00  0.380E+00
   1.122  0.374E+00  0.374E+00
   1.137  0.367E+00  0.367E+00
   1.152  0.360E+00  0.360E+00
   1.167  0.352E+00  0.352E+00
   1.182  0.343E+00  0.343E+00
   1.197  0.334E+00  0.334E+00
   1.212  0.324E+00  0.324E+00
   1.227  0.314E+00  0.314E+00
   1.242  0.304E+00  0.304E+00
   1.257  0.293E+00  0.293E+00
   1.272  0.282E+00  0.282E+00
   1.287  0.271E+00  0.271E+00
   1.302  0.260E+00  0.260E+00
   1.317  0.249E+00  0.249E+00
   1.332  0.238E+00  0.238E+00
   1.347  0.228E+00  0.228E+00
   1.362  0.217E+00  0.217E+00
   1.377  0.207E+00  0.207E+00
   1.392  0.198E+00  0.198E+00
   1.407  0.189E+00  0.189E+00
   1.422  0.180E+00  0.180E+00
   1.437  0.172E+00  0.172E+00
   1.452  0.165E+00  0.165E+00
   1.467  0.159E+00  0.159E+00
   1.482  0.153E+00  0.153E+00
   1.497  0.148E+00  0.148E+00
   1.512  0.144E+00  0.144E+00
   1.527  0.141E+00  0.141E+00
   1.542  0.139E+00  0.139E+00
   1.557  0.137E+00  0.137E+00
   1.572  0.136E+00  0.136E+00
   1.587  0.136E+00  0.136E+00
   1.602  0.137E+00  0.137E+00
   1.617  0.139E+00  0.139E+00
   1.632  0.141E+00  0.141E+00
   1.647  0.144E+00  0.144E+00
   1.662  0.147E+00  0.147E+00
   1.677  0.151E+00  0.151E+00
   1.692  0.155E+00  0.155E+00
   1.707  0.160E+00  0.160E+00
   1.722  0.165E+00  0.165E+00
   1.737  0.171E+00  0.171E+00
   1.752  0.177E+00  0.177E+00
   1.767  0.182E+00  0.182E+00
   1.782  0.188E+00  0.188E+00
   1.797  0.194E+00  0.194E+00
   1.812  0.200E+00  0.200E+00
   1.827  0.206E+00  0.206E+00
   1.842  0.211E+00  0.211E+00
   1.857  0.216E+00  0.216E+00
   1.872  0.221E+00  0.221E+00
   1.887  0.226E+00  0.226E+00
   1.902  0.230E+00  0.230E+00
   1.917  0.234E+00  0.234E+00
   1.932  0.238E+00  0.238E+00
   1.947  0.241E+00  0.241E+00
   1.962  0.244E+00  0.244E+00
   1.977  0.246E+00  0.246E+00
   1.992  0.248E+00  0.248E+00
   2.007  0.250E+00  0.250E+00
   2.022  0.251E+00  0.251E+00
   2.037  0.252E+00  0.252E+00
   2.052  0.252E+00  0.252E+00
   2.067  0.252E+00  0.252E+00
   2.082  0.251E+00  0.251E+00
   2.097  0.251E+00  0.251E+00
   2.112  0.249E+00  0.249E+00
   2.127  0.248E+00  0.248E+00
   2.142  0.246E+00  0.246E+00
   2.157  0.244E+00  0.244E+00
   2.172  0.242E+00  0.242E+00
   2.187  0.239E+00  0.239E+00
   2.202  0.237E+00  0.237E+00
   2.217  0.234E+00  0.234E+00
   2.232  0.231E+00  0.231E+00
   2.247  0.227E+00  0.227E+00
   2.262  0.224E+00  0.224E+00
   2.277  0.220E+00  0.220E+00
   2.292  0.216E+00  0.216E+00
   2.307  0.212E+00  0.212E+00
   2.322  0.208E+00  0.208E+00
   2.337  0.203E+00  0.203E+00
   2.352  0.199E+00  0.199E+00
   2.367  0.195E+00  0.195E+00
   2.382  0.190E+00  0.190E+00
   2.397  0.185E+00  0.185E+00
   2.412  0.180E+00  0.180E+00
   2.427  0.176E+00  0.176E+00
   2.442  0.171E+00  0.171E+00
   2.457  0.166E+00  0.166E+00
   2.472  0.161E+00  0.161E+00
   2.487  0.156E+00  0.156E+00
   2.502  0.152E+00  0.152E+00
   2.517  0.147E+00  0.147E+00
   2.532  0.142E+00  0.142E+00
   2.547  0.138E+00  0.138E+00
   2.562  0.134E+00  0.134E+00
   2.577  0.130E+00  0.130E+00
   2.592  0.126E+00  0.126E+00
   2.607  0.122E+00  0.122E+00
   2.622  0.119E+00  0.119E+00
   2.637  0.115E+00  0.115E+00
   2.652  0.112E+00  0.112E+00
   2.667  0.109E+00  0.109E+00
   2.682  0.107E+00  0.107E+00
   2.697  0.104E+00  0.104E+00
   2.712  0.102E+00  0.102E+00
   2.727  0.100E+00  0.100E+00
   2.742  0.983E-01  0.983E-01
   2.757  0.968E-01  0.968E-01
   2.772  0.954E-01  0.954E-01
   2.787  0.942E-01  0.942E-01
   2.802  0.931E-01  0.931E-01
   2.817  0.922E-01  0.922E-01
   2.832  0.915E-01  0.915E-01
   2.847  0.909E-01  0.909E-01
   2.862  0.904E-01  0.904E-01
   2.877  0.900E-01  0.900E-01
   2.892  0.896E-01  0.896E-01
   2.907  0.894E-01  0.894E-01
   2.922  0.893E-01  0.893E-01
   2.937  0.892E-01  0.892E-01
   2.952  0.891E-01  0.891E-01
   2.967  0.891E-01  0.891E-01
   2.982  0.892E-01  0.892E-01
   2.997  0.893E-01  0.893E-01
   3.012  0.895E-01  0.895E-01
   3.027  0.896E-01  0.896E-01
   3.042  0.899E-01  0.899E-01
   3.057  0.901E-01  0.901E-01
   3.072  0.904E-01  0.904E-01
   3.087  0.906E-01  0.906E-01
   3.102  0.909E-01  0.909E-01
   3.117  0.913E-01  0.913E-01
   3.132  0.916E-01  0.916E-01
   3.147  0.920E-01  0.920E-01
   3.162  0.924E-01  0.924E-01
   3.177  0.928E-01  0.928E-01
   3.192  0.932E-01  0.932E-01
   3.207  0.937E-01  0.937E-01
   3.222  0.942E-01  0.942E-01
   3.237  0.947E-01  0.947E-01
   3.252  0.952E-01  0.952E-01
   3.267  0.957E-01  0.957E-01
   3.282  0.963E-01  0.963E-01
   3.297  0.969E-01  0.969E-01
   3.312  0.976E-01  0.976E-01
   3.327  0.982E-01  0.982E-01
   3.342  0.990E-01  0.990E-01
   3.357  0.997E-01  0.997E-01
   3.372  0.101E+00  0.101E+00
   3.387  0.101E+00  0.101E+00
   3.402  0.102E+00  0.102E+00
   3.417  0.103E+00  0.103E+00
   3.432  0.104E+00  0.104E+00
   3.447  0.105E+00  0.105E+00
   3.462  0.106E+00  0.106E+00
   3.477  0.108E+00  0.108E+00
   3.492  0.109E+00  0.109E+00
   3.507  0.110E+00  0.110E+00
   3.522  0.112E+00  0.112E+00
   3.537  0.113E+00  0.113E+00
   3.552  0.115E+00  0.115E+00
   3.567  0.117E+00  0.117E+00
   3.582  0.119E+00  0.119E+00
   3.597  0.121E+00  0.121E+00
   3.612  0.123E+00  0.123E+00
   3.627  0.125E+00  0.125E+00
   3.642  0.128E+00  0.128E+00
   3.657  0.130E+00  0.130E+00
   3.672  0.133E+00  0.133E+00
   3.687  0.136E+00  0.136E+00
   3.702  0.139E+00  0.139E+00
   3.717  0.142E+00  0.142E+00
   3.732  0.145E+00  0.145E+00
   3.747  0.148E+00  0.148E+00
   3.762  0.151E+00  0.151E+00
   3.777  0.154E+00  0.154E+00
   3.792  0.157E+00  0.157E+00
   3.807  0.160E+00  0.160E+00
   3.822  0.163E+00  0.163E+00
   3.837  0.166E+00  0.166E+00
   3.852  0.169E+00  0.169E+00
   3.867  0.171E+00  0.171E+00
   3.882  0.173E+00  0.173E+00
   3.897  0.175E+00  0.175E+00
   3.912  0.177E+00  0.177E+00
   3.927  0.178E+00  0.178E+00
   3.942  0.178E+00  0.178E+00
   3.957  0.178E+00  0.178E+00
   3.972  0.178E+00  0.178E+00
   3.987  0.177E+00  0.177E+00
   4.002  0.176E+00  0.176E+00
   4.017  0.174E+00  0.174E+00
   4.032  0.171E+00  0.171E+00
   4.047  0.168E+00  0.168E+00
   4.062  0.164E+00  0.164E+00
   4.077  0.160E+00  0.160E+00
   4.092  0.155E+00  0.155E+00
   4.107  0.150E+00  0.150E+00
   4.122  0.145E+00  0.145E+00
   4.137  0.139E+00  0.139E+00
   4.152  0.133E+00  0.133E+00
   4.167  0.126E+00  0.126E+00
   4.182  0.120E+00  0.120E+00
   4.197  0.113E+00  0.113E+00
   4.212  0.106E+00  0.106E+00
   4.227  0.997E-01  0.997E-01
   4.242  0.931E-01  0.931E-01
   4.257  0.866E-01  0.866E-01
   4.272  0.803E-01  0.803E-01
   4.287  0.742E-01  0.742E-01
   4.302  0.683E-01  0.683E-01
   4.317  0.628E-01  0.628E-01
   4.332  0.575E-01  0.575E-01
   4.347  0.525E-01  0.525E-01
   4.362  0.478E-01  0.478E-01
   4.377  0.434E-01  0.434E-01
   4.392  0.394E-01  0.394E-01
   4.407  0.356E-01  0.356E-01
   4.422  0.322E-01  0.322E-01
   4.437  0.291E-01  0.291E-01
   4.452  0.262E-01  0.262E-01
   4.467  0.236E-01  0.236E-01
   4.482  0.212E-01  0.212E-01
   4.497  0.191E-01  0.191E-01
   4.512  0.172E-01  0.172E-01
   4.527  0.154E-01  0.154E-01
   4.542  0.139E-01  0.139E-01
   4.557  0.125E-01  0.125E-01
   4.572  0.112E-01  0.112E-01
   4.587  0.101E-01  0.101E-01
   4.602  0.910E-02  0.910E-02
   4.617  0.820E-02  0.820E-02
   4.632  0.739E-02  0.739E-02
   4.647  0.666E-02  0.666E-02
   4.662  0.601E-02  0.601E-02
   4.677  0.543E-02  0.543E-02
   4.692  0.491E-02  0.491E-02
   4.707  0.444E-02  0.444E-02
   4.722  0.402E-02  0.402E-02
   4.737  0.365E-02  0.365E-02
   4.752  0.331E-02  0.331E-02
   4.767  0.301E-02  0.301E-02
   4.782  0.274E-02  0.274E-02
   4.797  0.250E-02  0.250E-02
   4.812  0.228E-02  0.228E-02
   4.827  0.208E-02  0.208E-02
   4.842  0.191E-02  0.191E-02
   4.857  0.175E-02  0.175E-02
   4.872  0.161E-02  0.161E-02
   4.887  0.148E-02  0.148E-02
   4.902  0.136E-02  0.136E-02
   4.917  0.126E-02  0.126E-02
   4.932  0.116E-02  0.116E-02
   4.947  0.108E-02  0.108E-02
   4.962  0.996E-03  0.996E-03
   4.977  0.924E-03  0.924E-03
   4.992  0.857E-03  0.857E-03
   5.007  0.795E-03  0.795E-03
   5.022  0.738E-03  0.738E-03
   5.037  0.685E-03  0.685E-03
   5.052  0.636E-03  0.636E-03
   5.067  0.590E-03  0.590E-03
   5.082  0.548E-03  0.548E-03
   5.097  0.508E-03  0.508E-03
   5.112  0.471E-03  0.471E-03
   5.127  0.436E-03  0.436E-03
   5.142  0.404E-03  0.404E-03
   5.157  0.374E-03  0.374E-03
   5.172  0.346E-03  0.346E-03
   5.187  0.321E-03  0.321E-03
   5.202  0.297E-03  0.297E-03
   5.217  0.275E-03  0.275E-03
   5.232  0.255E-03  0.255E-03
   5.247  0.237E-03  0.237E-03
   5.262  0.220E-03  0.220E-03
   5.277  0.205E-03  0.205E-03
   5.292  0.191E-03  0.191E-03
   5.307  0.179E-03  0.179E-03
   5.322  0.168E-03  0.168E-03
   5.337  0.158E-03  0.158E-03
   5.352  0.150E-03  0.150E-03
   5.367  0.143E-03  0.143E-03
   5.382  0.136E-03  0.136E-03
   5.397  0.131E-03  0.131E-03
   5.412  0.127E-03  0.127E-03
   5.427  0.124E-03  0.124E-03
   5.442  0.122E-03  0.122E-03
   5.457  0.122E-03  0.122E-03
   5.472  0.124E-03  0.124E-03
   5.487  0.127E-03  0.127E-03
   5.502  0.134E-03  0.134E-03
   5.517  0.143E-03  0.143E-03
   5.532  0.157E-03  0.157E-03
   5.547  0.176E-03  0.176E-03
   5.562  0.201E-03  0.201E-03
   5.577  0.236E-03  0.236E-03
   5.592  0.281E-03  0.281E-03
   5.607  0.340E-03  0.340E-03
   5.622  0.416E-03  0.416E-03
   5.637  0.513E-03  0.513E-03
   5.652  0.637E-03  0.637E-03
   5.667  0.793E-03  0.793E-03
   5.682  0.989E-03  0.989E-03
   5.697  0.123E-02  0.123E-02
   5.712  0.153E-02  0.153E-02
   5.727  0.191E-02  0.191E-02
   5.742  0.236E-02  0.236E-02
   5.757  0.291E-02  0.291E-02
   5.772  0.358E-02  0.358E-02
   5.787  0.438E-02  0.438E-02
   5.802  0.533E-02  0.533E-02
   5.817  0.645E-02  0.645E-02
   5.832  0.778E-02  0.778E-02
   5.847  0.933E-02  0.933E-02
   5.862  0.111E-01  0.111E-01
   5.877  0.132E-01  0.132E-01
   5.892  0.156E-01  0.156E-01
   5.907  0.183E-01  0.183E-01
   5.922  0.214E-01  0.214E-01
   5.937  0.249E-01  0.249E-01
   5.952  0.287E-01  0.287E-01
   5.967  0.330E-01  0.330E-01
   5.982  0.378E-01  0.378E-01
   5.997  0.430E-01  0.430E-01
   6.012  0.486E-01  0.486E-01
   6.027  0.547E-01  0.547E-01
   6.042  0.613E-01  0.613E-01
   6.057  0.683E-01  0.683E-01
   6.072  0.757E-01  0.757E-01
   6.087  0.835E-01  0.835E-01
   6.102  0.916E-01  0.916E-01
   6.117  0.100E+00  0.100E+00
   6.132  0.109E+00  0.109E+00
   6.147  0.118E+00  0.118E+00
   6.162  0.126E+00  0.126E+00
   6.177  0.135E+00  0.135E+00
   6.192  0.144E+00  0.144E+00
   6.207  0.153E+00  0.153E+00
   6.222  0.162E+00  0.162E+00
   6.237  0.170E+00  0.170E+00
   6.252  0.178E+00  0.178E+00
   6.267  0.186E+00  0.186E+00
   6.282  0.193E+00  0.193E+00
   6.297  0.200E+00  0.200E+00
   6.312  0.207E+00  0.207E+00
   6.327  0.212E+00  0.212E+00
   6.342  0.217E+00  0.217E+00
   6.357  0.222E+00  0.222E+00
   6.372  0.226E+00  0.226E+00
   6.387  0.229E+00  0.229E+00
   6.402  0.232E+00  0.232E+00
   6.417  0.234E+00  0.234E+00
   6.432  0.235E+00  0.235E+00
   6.447  0.236E+00  0.236E+00
   6.462  0.237E+00  0.237E+00
   6.477  0.237E+00  0.237E+00
   6.492  0.237E+00  0.237E+00
   6.507  0.237E+00  0.237E+00
   6.522  0.236E+00  0.236E+00
   6.537  0.235E+00  0.235E+00
   6.552  0.233E+00  0.233E+00
   6.567  0.232E+00  0.232E+00
   6.582  0.231E+00  0.231E+00
   6.597  0.229E+00  0.229E+00
   6.612  0.227E+00  0.227E+00
   6.627  0.225E+00  0.225E+00
   6.642  0.223E+00  0.223E+00
   6.657  0.221E+00  0.221E+00
   6.672  0.219E+00  0.219E+00
   6.687  0.217E+00  0.217E+00
   6.702  0.215E+00  0.215E+00
   6.717  0.213E+00  0.213E+00
   6.732  0.210E+00  0.210E+00
   6.747  0.208E+00  0.208E+00
   6.762  0.205E+00  0.205E+00
   6.777  0.202E+00  0.202E+00
   6.792  0.199E+00  0.199E+00
   6.807  0.196E+00  0.196E+00
   6.822  0.193E+00  0.193E+00
   6.837  0.189E+00  0.189E+00
   6.852  0.186E+00  0.186E+00
   6.867  0.182E+00  0.182E+00
   6.882  0.178E+00  0.178E+00
   6.897  0.174E+00  0.174E+00
   6.912  0.170E+00  0.170E+00
   6.927  0.166E+00  0.166E+00
   6.942  0.162E+00  0.162E+00
   6.957  0.158E+00  0.158E+00
   6.972  0.153E+00  0.153E+00
   6.987  0.149E+00  0.149E+00
   7.002  0.145E+00  0.145E+00
   7.017  0.141E+00  0.141E+00
   7.032  0.137E+00  0.137E+00
   7.047  0.133E+00  0.133E+00
   7.062  0.129E+00  0.129E+00
   7.077  0.126E+00  0.126E+00
   7.092  0.122E+00  0.122E+00
   7.107  0.119E+00  0.119E+00
   7.122  0.117E+00  0.117E+00
   7.137  0.114E+00  0.114E+00
   7.152  0.112E+00  0.112E+00
   7.167  0.109E+00  0.109E+00
   7.182  0.108E+00  0.108E+00
   7.197  0.106E+00  0.106E+00
   7.212  0.105E+00  0.105E+00
   7.227  0.104E+00  0.104E+00
   7.242  0.103E+00  0.103E+00
   7.257  0.102E+00  0.102E+00
   7.272  0.102E+00  0.102E+00
   7.287  0.102E+00  0.102E+00
   7.302  0.102E+00  0.102E+00
   7.317  0.102E+00  0.102E+00
   7.332  0.102E+00  0.102E+00
   7.347  0.102E+00  0.102E+00
   7.362  0.103E+00  0.103E+00
   7.377  0.103E+00  0.103E+00
   7.392  0.103E+00  0.103E+00
   7.407  0.104E+00  0.104E+00
   7.422  0.104E+00  0.104E+00
   7.437  0.104E+00  0.104E+00
   7.452  0.104E+00  0.104E+00
   7.467  0.105E+00  0.105E+00
   7.482  0.104E+00  0.104E+00
   7.497  0.104E+00  0.104E+00
   7.512  0.104E+00  0.104E+00
   7.527  0.104E+00  0.104E+00
   7.542  0.103E+00  0.103E+00
   7.557  0.102E+00  0.102E+00
   7.572  0.102E+00  0.102E+00
   7.587  0.101E+00  0.101E+00
   7.602  0.996E-01  0.996E-01
   7.617  0.985E-01  0.985E-01
   7.632  0.972E-01  0.972E-01
   7.647  0.959E-01  0.959E-01
   7.662  0.946E-01  0.946E-01
   7.677  0.932E-01  0.932E-01
   7.692  0.918E-01  0.918E-01
   7.707  0.904E-01  0.904E-01
   7.722  0.889E-01  0.889E-01
   7.737  0.875E-01  0.875E-01
   7.752  0.861E-01  0.861E-01
   7.767  0.848E-01  0.848E-01
   7.782  0.835E-01  0.835E-01
   7.797  0.823E-01  0.823E-01
   7.812  0.812E-01  0.812E-01
   7.827  0.801E-01  0.801E-01
   7.842  0.791E-01  0.791E-01
   7.857  0.783E-01  0.783E-01
   7.872  0.775E-01  0.775E-01
   7.887  0.769E-01  0.769E-01
   7.902  0.764E-01  0.764E-01
   7.917  0.760E-01  0.760E-01
   7.932  0.758E-01  0.758E-01
   7.947  0.758E-01  0.758E-01
   7.962  0.759E-01  0.759E-01
   7.977  0.762E-01  0.762E-01
   7.992  0.767E-01  0.767E-01
   8.007  0.774E-01  0.774E-01
   8.022  0.783E-01  0.783E-01
   8.037  0.794E-01  0.794E-01
   8.052  0.808E-01  0.808E-01
   8.067  0.823E-01  0.823E-01
   8.082  0.841E-01  0.841E-01
   8.097  0.861E-01  0.861E-01
   8.112  0.883E-01  0.883E-01
   8.127  0.908E-01  0.908E-01
   8.142  0.934E-01  0.934E-01
   8.157  0.961E-01  0.961E-01
   8.172  0.990E-01  0.990E-01
   8.187  0.102E+00  0.102E+00
   8.202  0.105E+00  0.105E+00
   8.217  0.108E+00  0.108E+00
   8.232  0.111E+00  0.111E+00
   8.247  0.114E+00  0.114E+00
   8.262  0.117E+00  0.117E+00
   8.277  0.120E+00  0.120E+00
   8.292  0.122E+00  0.122E+00
   8.307  0.125E+00  0.125E+00
   8.322  0.126E+00  0.126E+00
   8.337  0.128E+00  0.128E+00
   8.352  0.129E+00  0.129E+00
   8.367  0.130E+00  0.130E+00
   8.382  0.130E+00  0.130E+00
   8.397  0.130E+00  0.130E+00
   8.412  0.129E+00  0.129E+00
   8.427  0.127E+00  0.127E+00
   8.442  0.125E+00  0.125E+00
   8.457  0.123E+00  0.123E+00
   8.472  0.120E+00  0.120E+00
   8.487  0.116E+00  0.116E+00
   8.502  0.113E+00  0.113E+00
   8.517  0.108E+00  0.108E+00
   8.532  0.104E+00  0.104E+00
   8.547  0.986E-01  0.986E-01
   8.562  0.934E-01  0.934E-01
   8.577  0.880E-01  0.880E-01
   8.592  0.825E-01  0.825E-01
   8.607  0.769E-01  0.769E-01
   8.622  0.713E-01  0.713E-01
   8.637  0.658E-01  0.658E-01
   8.652  0.604E-01  0.604E-01
   8.667  0.551E-01  0.551E-01
   8.682  0.500E-01  0.500E-01
   8.697  0.451E-01  0.451E-01
   8.712  0.405E-01  0.405E-01
   8.727  0.361E-01  0.361E-01
   8.742  0.320E-01  0.320E-01
   8.757  0.283E-01  0.283E-01
   8.772  0.248E-01  0.248E-01
   8.787  0.216E-01  0.216E-01
   8.802  0.188E-01  0.188E-01
   8.817  0.162E-01  0.162E-01
   8.832  0.139E-01  0.139E-01
   8.847  0.118E-01  0.118E-01
   8.862  0.100E-01  0.100E-01
   8.877  0.844E-02  0.844E-02
   8.892  0.707E-02  0.707E-02
   8.907  0.589E-02  0.589E-02
   8.922  0.488E-02  0.488E-02
   8.937  0.402E-02  0.402E-02
   8.952  0.329E-02  0.329E-02
   8.967  0.267E-02  0.267E-02
   8.982  0.216E-02  0.216E-02
   8.997  0.174E-02  0.174E-02
   9.012  0.139E-02  0.139E-02
   9.027  0.111E-02  0.111E-02
   9.042  0.874E-03  0.874E-03
   9.057  0.687E-03  0.687E-03
   9.072  0.536E-03  0.536E-03
   9.087  0.416E-03  0.416E-03
   9.102  0.322E-03  0.322E-03
   9.117  0.247E-03  0.247E-03
   9.132  0.189E-03  0.189E-03
   9.147  0.144E-03  0.144E-03
   9.162  0.109E-03  0.109E-03
   9.177  0.832E-04  0.832E-04
   9.192  0.634E-04  0.634E-04
   9.207  0.488E-04  0.488E-04
   9.222  0.382E-04  0.382E-04
   9.237  0.308E-04  0.308E-04
   9.252  0.260E-04  0.260E-04
   9.267  0.232E-04  0.232E-04
   9.282  0.221E-04  0.221E-04
   9.297  0.224E-04  0.224E-04
   9.312  0.239E-04  0.239E-04
   9.327  0.265E-04  0.265E-04
   9.342  0.302E-04  0.302E-04
   9.357  0.350E-04  0.350E-04
   9.372  0.408E-04  0.408E-04
   9.387  0.477E-04  0.477E-04
   9.402  0.558E-04  0.558E-04
   9.417  0.651E-04  0.651E-04
   9.432  0.759E-04  0.759E-04
   9.447  0.881E-04  0.881E-04
   9.462  0.102E-03  0.102E-03
   9.477  0.117E-03  0.117E-03
   9.492  0.135E-03  0.135E-03
   9.507  0.155E-03  0.155E-03
   9.522  0.176E-03  0.176E-03
   9.537  0.201E-03  0.201E-03
   9.552  0.228E-03  0.228E-03
   9.567  0.259E-03  0.259E-03
   9.582  0.294E-03  0.294E-03
   9.597  0.333E-03  0.333E-03
   9.612  0.377E-03  0.377E-03
   9.627  0.427E-03  0.427E-03
   9.642  0.484E-03  0.484E-03
   9.657  0.550E-03  0.550E-03
   9.672  0.627E-03  0.627E-03
   9.687  0.716E-03  0.716E-03
   9.702  0.822E-03  0.822E-03
   9.717  0.946E-03  0.946E-03
   9.732  0.109E-02  0.109E-02
   9.747  0.127E-02  0.127E-02
   9.762  0.148E-02  0.148E-02
   9.777  0.172E-02  0.172E-02
   9.792  0.202E-02  0.202E-02
   9.807  0.237E-02  0.237E-02
   9.822  0.279E-02  0.279E-02
   9.837  0.329E-02  0.329E-02
   9.852  0.388E-02  0.388E-02
   9.867  0.457E-02  0.457E-02
   9.882  0.539E-02  0.539E-02
   9.897  0.633E-02  0.633E-02
   9.912  0.743E-02  0.743E-02
   9.927  0.870E-02  0.870E-02
   9.942  0.102E-01  0.102E-01
   9.957  0.118E-01  0.118E-01
   9.972  0.137E-01  0.137E-01
   9.987  0.158E-01  0.158E-01
  10.002  0.182E-01  0.182E-01
  10.017  0.208E-01  0.208E-01
  10.032  0.237E-01  0.237E-01
  10.047  0.269E-01  0.269E-01
  10.062  0.303E-01  0.303E-01
  10.077  0.340E-01  0.340E-01
  10.092  0.380E-01  0.380E-01
  10.107  0.422E-01  0.422E-01
  10.122  0.466E-01  0.466E-01
  10.137  0.513E-01  0.513E-01
  10.152  0.561E-01  0.561E-01
  10.167  0.610E-01  0.610E-01
  10.182  0.660E-01  0.660E-01
  10.197  0.711E-01  0.711E-01
  10.212  0.761E-01  0.761E-01
  10.227  0.810E-01  0.810E-01
  10.242  0.858E-01  0.858E-01
  10.257  0.905E-01  0.905E-01
  10.272  0.948E-01  0.948E-01
  10.287  0.989E-01  0.989E-01
  10.302  0.103E+00  0.103E+00
  10.317  0.106E+00  0.106E+00
  10.332  0.109E+00  0.109E+00
  10.347  0.111E+00  0.111E+00
  10.362  0.113E+00  0.113E+00
  10.377  0.115E+00  0.115E+00
  10.392  0.116E+00  0.116E+00
  10.407  0.116E+00  0.116E+00
  10.422  0.116E+00  0.116E+00
  10.437  0.115E+00  0.115E+00
  10.452  0.114E+00  0.114E+00
  10.467  0.113E+00  0.113E+00
  10.482  0.111E+00  0.111E+00
  10.497  0.109E+00  0.109E+00
  10.512  0.106E+00  0.106E+00
  10.527  0.103E+00  0.103E+00
  10.542  0.100E+00  0.100E+00
  10.557  0.971E-01  0.971E-01
  10.572  0.938E-01  0.938E-01
  10.587  0.905E-01  0.905E-01
  10.602  0.871E-01  0.871E-01
  10.617  0.837E-01  0.837E-01
  10.632  0.804E-01  0.804E-01
  10.647  0.771E-01  0.771E-01
  10.662  0.739E-01  0.739E-01
  10.677  0.709E-01  0.709E-01
  10.692  0.680E-01  0.680E-01
  10.707  0.652E-01  0.652E-01
  10.722  0.626E-01  0.626E-01
  10.737  0.601E-01  0.601E-01
  10.752  0.578E-01  0.578E-01
  10.767  0.557E-01  0.557E-01
  10.782  0.537E-01  0.537E-01
  10.797  0.519E-01  0.519E-01
  10.812  0.503E-01  0.503E-01
  10.827  0.487E-01  0.487E-01
  10.842  0.474E-01  0.474E-01
  10.857  0.462E-01  0.462E-01
  10.872  0.451E-01  0.451E-01
  10.887  0.441E-01  0.441E-01
  10.902  0.433E-01  0.433E-01
  10.917  0.426E-01  0.426E-01
  10.932  0.420E-01  0.420E-01
  10.947  0.415E-01  0.415E-01
  10.962  0.411E-01  0.411E-01
  10.977  0.408E-01  0.408E-01
  10.992  0.406E-01  0.406E-01
  11.007  0.406E-01  0.406E-01
  11.022  0.406E-01  0.406E-01
  11.037  0.407E-01  0.407E-01
  11.052  0.409E-01  0.409E-01
  11.067  0.411E-01  0.411E-01
  11.082  0.414E-01  0.414E-01
  11.097  0.418E-01  0.418E-01
  11.112  0.423E-01  0.423E-01
  11.127  0.427E-01  0.427E-01
  11.142  0.433E-01  0.433E-01
  11.157  0.439E-01  0.439E-01
  11.172  0.445E-01  0.445E-01
  11.187  0.451E-01  0.451E-01
  11.202  0.457E-01  0.457E-01
  11.217  0.464E-01  0.464E-01
  11.232  0.470E-01  0.470E-01
  11.247  0.477E-01  0.477E-01
  11.262  0.483E-01  0.483E-01
  11.277  0.490E-01  0.490E-01
  11.292  0.496E-01  0.496E-01
  11.307  0.502E-01  0.502E-01
  11.322  0.508E-01  0.508E-01
  11.337  0.513E-01  0.513E-01
  11.352  0.519E-01  0.519E-01
  11.367  0.524E-01  0.524E-01
  11.382  0.529E-01  0.529E-01
  11.397  0.533E-01  0.533E-01
  11.412  0.537E-01  0.537E-01
  11.427  0.541E-01  0.541E-01
  11.442  0.545E-01  0.545E-01
  11.457  0.549E-01  0.549E-01
  11.472  0.552E-01  0.552E-01
  11.487  0.555E-01  0.555E-01
  11.502  0.558E-01  0.558E-01
  11.517  0.560E-01  0.560E-01
  11.532  0.562E-01  0.562E-01
  11.547  0.564E-01  0.564E-01
  11.562  0.566E-01  0.566E-01
  11.577  0.567E-01  0.567E-01
  11.592  0.569E-01  0.569E-01
  11.607  0.569E-01  0.569E-01
  11.622  0.570E-01  0.570E-01
  11.637  0.570E-01  0.570E-01
  11.652  0.570E-01  0.570E-01
  11.667  0.569E-01  0.569E-01
  11.682  0.568E-01  0.568E-01
  11.697  0.566E-01  0.566E-01
  11.712  0.563E-01  0.563E-01
  11.727  0.561E-01  0.561E-01
  11.742  0.557E-01  0.557E-01
  11.757  0.553E-01  0.553E-01
  11.772  0.549E-01  0.549E-01
  11.787  0.543E-01  0.543E-01
  11.802  0.537E-01  0.537E-01
  11.817  0.531E-01  0.531E-01
  11.832  0.523E-01  0.523E-01
  11.847  0.516E-01  0.516E-01
  11.862  0.507E-01  0.507E-01
  11.877  0.498E-01  0.498E-01
  11.892  0.488E-01  0.488E-01
  11.907  0.478E-01  0.478E-01
  11.922  0.467E-01  0.467E-01
  11.937  0.456E-01  0.456E-01
  11.952  0.444E-01  0.444E-01
  11.967  0.432E-01  0.432E-01
  11.982  0.420E-01  0.420E-01
  11.997  0.408E-01  0.408E-01
  12.012  0.395E-01  0.395E-01
  12.027  0.383E-01  0.383E-01
  12.042  0.371E-01  0.371E-01
  12.057  0.359E-01  0.359E-01
  12.072  0.348E-01  0.348E-01
  12.087  0.336E-01  0.336E-01
  12.102  0.326E-01  0.326E-01
  12.117  0.315E-01  0.315E-01
  12.132  0.305E-01  0.305E-01
  12.147  0.296E-01  0.296E-01
  12.162  0.288E-01  0.288E-01
  12.177  0.280E-01  0.280E-01
  12.192  0.273E-01  0.273E-01
  12.207  0.266E-01  0.266E-01
  12.222  0.261E-01  0.261E-01
  12.237  0.256E-01  0.256E-01
  12.252  0.251E-01  0.251E-01
  12.267  0.247E-01  0.247E-01
  12.282  0.244E-01  0.244E-01
  12.297  0.242E-01  0.242E-01
  12.312  0.240E-01  0.240E-01
  12.327  0.238E-01  0.238E-01
  12.342  0.238E-01  0.238E-01
  12.357  0.237E-01  0.237E-01
  12.372  0.237E-01  0.237E-01
  12.387  0.237E-01  0.237E-01
  12.402  0.238E-01  0.238E-01
  12.417  0.239E-01  0.239E-01
  12.432  0.240E-01  0.240E-01
  12.447  0.241E-01  0.241E-01
  12.462  0.243E-01  0.243E-01
  12.477  0.245E-01  0.245E-01
  12.492  0.247E-01  0.247E-01
  12.507  0.249E-01  0.249E-01
  12.522  0.251E-01  0.251E-01
  12.537  0.253E-01  0.253E-01
  12.552  0.255E-01  0.255E-01
  12.567  0.257E-01  0.257E-01
  12.582  0.259E-01  0.259E-01
  12.597  0.260E-01  0.260E-01
  12.612  0.262E-01  0.262E-01
  12.627  0.263E-01  0.263E-01
  12.642  0.264E-01  0.264E-01
  12.657  0.265E-01  0.265E-01
  12.672  0.265E-01  0.265E-01
  12.687  0.266E-01  0.266E-01
  12.702  0.265E-01  0.265E-01
  12.717  0.265E-01  0.265E-01
  12.732  0.264E-01  0.264E-01
  12.747  0.262E-01  0.262E-01
  12.762  0.260E-01  0.260E-01
  12.777  0.258E-01  0.258E-01
  12.792  0.255E-01  0.255E-01
  12.807  0.252E-01  0.252E-01
  12.822  0.249E-01  0.249E-01
  12.837  0.245E-01  0.245E-01
  12.852  0.241E-01  0.241E-01
  12.867  0.236E-01  0.236E-01
  12.882  0.231E-01  0.231E-01
  12.897  0.226E-01  0.226E-01
  12.912  0.221E-01  0.221E-01
  12.927  0.216E-01  0.216E-01
  12.942  0.210E-01  0.210E-01
  12.957  0.204E-01  0.204E-01
  12.972  0.199E-01  0.199E-01
  12.987  0.193E-01  0.193E-01
  13.002  0.188E-01  0.188E-01
  13.017  0.182E-01  0.182E-01
  13.032  0.177E-01  0.177E-01
  13.047  0.171E-01  0.171E-01
  13.062  0.166E-01  0.166E-01
  13.077  0.161E-01  0.161E-01
  13.092  0.157E-01  0.157E-01
  13.107  0.152E-01  0.152E-01
  13.122  0.148E-01  0.148E-01
  13.137  0.144E-01  0.144E-01
  13.152  0.140E-01  0.140E-01
  13.167  0.137E-01  0.137E-01
  13.182  0.134E-01  0.134E-01
  13.197  0.131E-01  0.131E-01
  13.212  0.129E-01  0.129E-01
  13.227  0.127E-01  0.127E-01
  13.242  0.125E-01  0.125E-01
  13.257  0.123E-01  0.123E-01
  13.272  0.122E-01  0.122E-01
  13.287  0.121E-01  0.121E-01
  13.302  0.121E-01  0.121E-01
  13.317  0.121E-01  0.121E-01
  13.332  0.121E-01  0.121E-01
  13.347  0.121E-01  0.121E-01
  13.362  0.122E-01  0.122E-01
  13.377  0.123E-01  0.123E-01
  13.392  0.125E-01  0.125E-01
  13.407  0.127E-01  0.127E-01
  13.422  0.129E-01  0.129E-01
  13.437  0.131E-01  0.131E-01
  13.452  0.135E-01  0.135E-01
  13.467  0.138E-01  0.138E-01
  13.482  0.142E-01  0.142E-01
  13.497  0.146E-01  0.146E-01
  13.512  0.151E-01  0.151E-01
  13.527  0.155E-01  0.155E-01
  13.542  0.161E-01  0.161E-01
  13.557  0.167E-01  0.167E-01
  13.572  0.173E-01  0.173E-01
  13.587  0.179E-01  0.179E-01
  13.602  0.186E-01  0.186E-01
  13.617  0.193E-01  0.193E-01
  13.632  0.201E-01  0.201E-01
  13.647  0.209E-01  0.209E-01
  13.662  0.217E-01  0.217E-01
  13.677  0.226E-01  0.226E-01
  13.692  0.236E-01  0.236E-01
  13.707  0.245E-01  0.245E-01
  13.722  0.255E-01  0.255E-01
  13.737  0.266E-01  0.266E-01
  13.752  0.277E-01  0.277E-01
  13.767  0.288E-01  0.288E-01
  13.782  0.300E-01  0.300E-01
  13.797  0.312E-01  0.312E-01
  13.812  0.325E-01  0.325E-01
  13.827  0.338E-01  0.338E-01
  13.842  0.351E-01  0.351E-01
  13.857  0.365E-01  0.365E-01
  13.872  0.379E-01  0.379E-01
  13.887  0.394E-01  0.394E-01
  13.902  0.408E-01  0.408E-01
  13.917  0.423E-01  0.423E-01
  13.932  0.437E-01  0.437E-01
  13.947  0.451E-01  0.451E-01
  13.962  0.464E-01  0.464E-01
  13.977  0.477E-01  0.477E-01
  13.992  0.489E-01  0.489E-01
  14.007  0.500E-01  0.500E-01
  14.022  0.510E-01  0.510E-01
  14.037  0.519E-01  0.519E-01
  14.052  0.527E-01  0.527E-01
  14.067  0.532E-01  0.532E-01
  14.082  0.536E-01  0.536E-01
  14.097  0.538E-01  0.538E-01
  14.112  0.539E-01  0.539E-01
  14.127  0.537E-01  0.537E-01
  14.142  0.534E-01  0.534E-01
  14.157  0.528E-01  0.528E-01
  14.172  0.521E-01  0.521E-01
  14.187  0.512E-01  0.512E-01
  14.202  0.502E-01  0.502E-01
  14.217  0.489E-01  0.489E-01
  14.232  0.476E-01  0.476E-01
  14.247  0.461E-01  0.461E-01
  14.262  0.446E-01  0.446E-01
  14.277  0.430E-01  0.430E-01
  14.292  0.413E-01  0.413E-01
  14.307  0.395E-01  0.395E-01
  14.322  0.378E-01  0.378E-01
  14.337  0.361E-01  0.361E-01
  14.352  0.343E-01  0.343E-01
  14.367  0.327E-01  0.327E-01
  14.382  0.310E-01  0.310E-01
  14.397  0.294E-01  0.294E-01
  14.412  0.279E-01  0.279E-01
  14.427  0.265E-01  0.265E-01
  14.442  0.252E-01  0.252E-01
  14.457  0.239E-01  0.239E-01
  14.472  0.228E-01  0.228E-01
  14.487  0.217E-01  0.217E-01
  14.502  0.207E-01  0.207E-01
  14.517  0.198E-01  0.198E-01
  14.532  0.190E-01  0.190E-01
  14.547  0.183E-01  0.183E-01
  14.562  0.176E-01  0.176E-01
  14.577  0.170E-01  0.170E-01
  14.592  0.165E-01  0.165E-01
  14.607  0.160E-01  0.160E-01
  14.622  0.156E-01  0.156E-01
  14.637  0.152E-01  0.152E-01
  14.652  0.149E-01  0.149E-01
  14.667  0.146E-01  0.146E-01
  14.682  0.143E-01  0.143E-01
  14.697  0.140E-01  0.140E-01
  14.712  0.138E-01  0.138E-01
  14.727  0.136E-01  0.136E-01
  14.742  0.134E-01  0.134E-01
  14.757  0.133E-01  0.133E-01
  14.772  0.131E-01  0.131E-01
  14.787  0.130E-01  0.130E-01
  14.802  0.128E-01  0.128E-01
  14.817  0.127E-01  0.127E-01
  14.832  0.126E-01  0.126E-01
  14.847  0.124E-01  0.124E-01
  14.862  0.123E-01  0.123E-01
  14.877  0.122E-01  0.122E-01
  14.892  0.120E-01  0.120E-01
  14.907  0.119E-01  0.119E-01
  14.922  0.117E-01  0.117E-01
  14.937  0.116E-01  0.116E-01
  14.952  0.114E-01  0.114E-01
  14.967  0.113E-01  0.113E-01
  14.982  0.111E-01  0.111E-01
  14.997  0.110E-01  0.110E-01
  15.012  0.108E-01  0.108E-01
  15.027  0.106E-01  0.106E-01
  15.042  0.105E-01  0.105E-01
  15.057  0.103E-01  0.103E-01
  15.072  0.102E-01  0.102E-01
  15.087  0.100E-01  0.100E-01
  15.102  0.986E-02  0.986E-02
  15.117  0.972E-02  0.972E-02
  15.132  0.958E-02  0.958E-02
  15.147  0.946E-02  0.946E-02
  15.162  0.934E-02  0.934E-02
  15.177  0.924E-02  0.924E-02
  15.192  0.914E-02  0.914E-02
  15.207  0.905E-02  0.905E-02
  15.222  0.898E-02  0.898E-02
  15.237  0.892E-02  0.892E-02
  15.252  0.887E-02  0.887E-02
  15.267  0.884E-02  0.884E-02
  15.282  0.882E-02  0.882E-02
  15.297  0.881E-02  0.881E-02
  15.312  0.882E-02  0.882E-02
  15.327  0.884E-02  0.884E-02
  15.342  0.888E-02  0.888E-02
  15.357  0.894E-02  0.894E-02
  15.372  0.901E-02  0.901E-02
  15.387  0.910E-02  0.910E-02
  15.402  0.921E-02  0.921E-02
  15.417  0.933E-02  0.933E-02
  15.432  0.947E-02  0.947E-02
  15.447  0.963E-02  0.963E-02
  15.462  0.980E-02  0.980E-02
  15.477  0.999E-02  0.999E-02
  15.492  0.102E-01  0.102E-01
  15.507  0.104E-01  0.104E-01
  15.522  0.106E-01  0.106E-01
  15.537  0.109E-01  0.109E-01
  15.552  0.111E-01  0.111E-01
  15.567  0.113E-01  0.113E-01
  15.582  0.116E-01  0.116E-01
  15.597  0.118E-01  0.118E-01
  15.612  0.121E-01  0.121E-01
  15.627  0.123E-01  0.123E-01
  15.642  0.125E-01  0.125E-01
  15.657  0.127E-01  0.127E-01
  15.672  0.129E-01  0.129E-01
  15.687  0.130E-01  0.130E-01
  15.702  0.131E-01  0.131E-01
  15.717  0.132E-01  0.132E-01
  15.732  0.133E-01  0.133E-01
  15.747  0.133E-01  0.133E-01
  15.762  0.133E-01  0.133E-01
  15.777  0.133E-01  0.133E-01
  15.792  0.132E-01  0.132E-01
  15.807  0.131E-01  0.131E-01
  15.822  0.130E-01  0.130E-01
  15.837  0.128E-01  0.128E-01
  15.852  0.125E-01  0.125E-01
  15.867  0.123E-01  0.123E-01
  15.882  0.120E-01  0.120E-01
  15.897  0.117E-01  0.117E-01
  15.912  0.114E-01  0.114E-01
  15.927  0.110E-01  0.110E-01
  15.942  0.107E-01  0.107E-01
  15.957  0.103E-01  0.103E-01
  15.972  0.991E-02  0.991E-02
  15.987  0.951E-02  0.951E-02
  16.002  0.911E-02  0.911E-02
  16.017  0.872E-02  0.872E-02
  16.032  0.832E-02  0.832E-02
  16.047  0.793E-02  0.793E-02
  16.062  0.755E-02  0.755E-02
  16.077  0.718E-02  0.718E-02
  16.092  0.682E-02  0.682E-02
  16.107  0.647E-02  0.647E-02
  16.122  0.614E-02  0.614E-02
  16.137  0.582E-02  0.582E-02
  16.152  0.552E-02  0.552E-02
  16.167  0.524E-02  0.524E-02
  16.182  0.497E-02  0.497E-02
  16.197  0.472E-02  0.472E-02
  16.212  0.448E-02  0.448E-02
  16.227  0.426E-02  0.426E-02
  16.242  0.406E-02  0.406E-02
  16.257  0.387E-02  0.387E-02
  16.272  0.369E-02  0.369E-02
  16.287  0.353E-02  0.353E-02
  16.302  0.338E-02  0.338E-02
  16.317  0.324E-02  0.324E-02
  16.332  0.311E-02  0.311E-02
  16.347  0.300E-02  0.300E-02
  16.362  0.289E-02  0.289E-02
  16.377  0.279E-02  0.279E-02
  16.392  0.271E-02  0.271E-02
  16.407  0.263E-02  0.263E-02
  16.422  0.255E-02  0.255E-02
  16.437  0.249E-02  0.249E-02
  16.452  0.244E-02  0.244E-02
  16.467  0.239E-02  0.239E-02
  16.482  0.235E-02  0.235E-02
  16.497  0.232E-02  0.232E-02
  16.512  0.230E-02  0.230E-02
  16.527  0.228E-02  0.228E-02
  16.542  0.228E-02  0.228E-02
  16.557  0.228E-02  0.228E-02
  16.572  0.230E-02  0.230E-02
  16.587  0.233E-02  0.233E-02
  16.602  0.236E-02  0.236E-02
  16.617  0.241E-02  0.241E-02
  16.632  0.247E-02  0.247E-02
  16.647  0.255E-02  0.255E-02
  16.662  0.264E-02  0.264E-02
  16.677  0.274E-02  0.274E-02
  16.692  0.286E-02  0.286E-02
  16.707  0.300E-02  0.300E-02
  16.722  0.315E-02  0.315E-02
  16.737  0.332E-02  0.332E-02
  16.752  0.350E-02  0.350E-02
  16.767  0.370E-02  0.370E-02
  16.782  0.392E-02  0.392E-02
  16.797  0.415E-02  0.415E-02
  16.812  0.439E-02  0.439E-02
  16.827  0.465E-02  0.465E-02
  16.842  0.492E-02  0.492E-02
  16.857  0.520E-02  0.520E-02
  16.872  0.549E-02  0.549E-02
  16.887  0.578E-02  0.578E-02
  16.902  0.608E-02  0.608E-02
  16.917  0.637E-02  0.637E-02
  16.932  0.666E-02  0.666E-02
  16.947  0.694E-02  0.694E-02
  16.962  0.721E-02  0.721E-02
  16.977  0.747E-02  0.747E-02
  16.992  0.770E-02  0.770E-02
  17.007  0.792E-02  0.792E-02
  17.022  0.812E-02  0.812E-02
  17.037  0.829E-02  0.829E-02
  17.052  0.843E-02  0.843E-02
  17.067  0.854E-02  0.854E-02
  17.082  0.862E-02  0.862E-02
  17.097  0.867E-02  0.867E-02
  17.112  0.869E-02  0.869E-02
  17.127  0.867E-02  0.867E-02
  17.142  0.863E-02  0.863E-02
  17.157  0.855E-02  0.855E-02
  17.172  0.845E-02  0.845E-02
  17.187  0.831E-02  0.831E-02
  17.202  0.816E-02  0.816E-02
  17.217  0.798E-02  0.798E-02
  17.232  0.779E-02  0.779E-02
  17.247  0.758E-02  0.758E-02
  17.262  0.736E-02  0.736E-02
  17.277  0.713E-02  0.713E-02
  17.292  0.689E-02  0.689E-02
  17.307  0.665E-02  0.665E-02
  17.322  0.640E-02  0.640E-02
  17.337  0.616E-02  0.616E-02
  17.352  0.592E-02  0.592E-02
  17.367  0.569E-02  0.569E-02
  17.382  0.546E-02  0.546E-02
  17.397  0.524E-02  0.524E-02
  17.412  0.504E-02  0.504E-02
  17.427  0.484E-02  0.484E-02
  17.442  0.465E-02  0.465E-02
  17.457  0.447E-02  0.447E-02
  17.472  0.430E-02  0.430E-02
  17.487  0.415E-02  0.415E-02
  17.502  0.400E-02  0.400E-02
  17.517  0.386E-02  0.386E-02
  17.532  0.374E-02  0.374E-02
  17.547  0.362E-02  0.362E-02
  17.562  0.351E-02  0.351E-02
  17.577  0.341E-02  0.341E-02
  17.592  0.331E-02  0.331E-02
  17.607  0.322E-02  0.322E-02
  17.622  0.314E-02  0.314E-02
  17.637  0.306E-02  0.306E-02
  17.652  0.298E-02  0.298E-02
  17.667  0.291E-02  0.291E-02
  17.682  0.284E-02  0.284E-02
  17.697  0.277E-02  0.277E-02
  17.712  0.271E-02  0.271E-02
  17.727  0.264E-02  0.264E-02
  17.742  0.258E-02  0.258E-02
  17.757  0.251E-02  0.251E-02
  17.772  0.245E-02  0.245E-02
  17.787  0.239E-02  0.239E-02
  17.802  0.233E-02  0.233E-02
  17.817  0.226E-02  0.226E-02
  17.832  0.220E-02  0.220E-02
  17.847  0.214E-02  0.214E-02
  17.862  0.208E-02  0.208E-02
  17.877  0.202E-02  0.202E-02
  17.892  0.196E-02  0.196E-02
  17.907  0.191E-02  0.191E-02
  17.922  0.185E-02  0.185E-02
  17.937  0.180E-02  0.180E-02
  17.952  0.174E-02  0.174E-02
  17.967  0.169E-02  0.169E-02
  17.982  0.164E-02  0.164E-02
  17.997  0.159E-02  0.159E-02
  18.012  0.155E-02  0.155E-02
  18.027  0.150E-02  0.150E-02
  18.042  0.146E-02  0.146E-02
  18.057  0.142E-02  0.142E-02
  18.072  0.139E-02  0.139E-02
  18.087  0.135E-02  0.135E-02
  18.102  0.132E-02  0.132E-02
  18.117  0.129E-02  0.129E-02
  18.132  0.126E-02  0.126E-02
  18.147  0.123E-02  0.123E-02
  18.162  0.121E-02  0.121E-02
  18.177  0.118E-02  0.118E-02
  18.192  0.116E-02  0.116E-02
  18.207  0.114E-02  0.114E-02
  18.222  0.112E-02  0.112E-02
  18.237  0.111E-02  0.111E-02
  18.252  0.109E-02  0.109E-02
  18.267  0.108E-02  0.108E-02
  18.282  0.107E-02  0.107E-02
  18.297  0.106E-02  0.106E-02
  18.312  0.105E-02  0.105E-02
  18.327  0.104E-02  0.104E-02
  18.342  0.103E-02  0.103E-02
  18.357  0.102E-02  0.102E-02
  18.372  0.102E-02  0.102E-02
  18.387  0.101E-02  0.101E-02
  18.402  0.100E-02  0.100E-02
  18.417  0.999E-03  0.999E-03
  18.432  0.994E-03  0.994E-03
  18.447  0.989E-03  0.989E-03
  18.462  0.984E-03  0.984E-03
  18.477  0.979E-03  0.979E-03
  18.492  0.974E-03  0.974E-03
  18.507  0.969E-03  0.969E-03
  18.522  0.964E-03  0.964E-03
  18.537  0.959E-03  0.959E-03
  18.552  0.953E-03  0.953E-03
  18.567  0.947E-03  0.947E-03
  18.582  0.941E-03  0.941E-03
  18.597  0.935E-03  0.935E-03
  18.612  0.929E-03  0.929E-03
  18.627  0.922E-03  0.922E-03
  18.642  0.915E-03  0.915E-03
  18.657  0.908E-03  0.908E-03
  18.672  0.902E-03  0.902E-03
  18.687  0.895E-03  0.895E-03
  18.702  0.888E-03  0.888E-03
  18.717  0.881E-03  0.881E-03
  18.732  0.875E-03  0.875E-03
  18.747  0.868E-03  0.868E-03
  18.762  0.862E-03  0.862E-03
  18.777  0.856E-03  0.856E-03
  18.792  0.850E-03  0.850E-03
  18.807  0.844E-03  0.844E-03
  18.822  0.839E-03  0.839E-03
  18.837  0.834E-03  0.834E-03
  18.852  0.830E-03  0.830E-03
  18.867  0.826E-03  0.826E-03
  18.882  0.823E-03  0.823E-03
  18.897  0.821E-03  0.821E-03
  18.912  0.819E-03  0.819E-03
  18.927  0.818E-03  0.818E-03
  18.942  0.818E-03  0.818E-03
  18.957  0.819E-03  0.819E-03
  18.972  0.820E-03  0.820E-03
  18.987  0.823E-03  0.823E-03
  19.002  0.827E-03  0.827E-03
  19.017  0.833E-03  0.833E-03
  19.032  0.839E-03  0.839E-03
  19.047  0.847E-03  0.847E-03
  19.062  0.856E-03  0.856E-03
  19.077  0.867E-03  0.867E-03
  19.092  0.879E-03  0.879E-03
  19.107  0.892E-03  0.892E-03
  19.122  0.906E-03  0.906E-03
  19.137  0.921E-03  0.921E-03
  19.152  0.938E-03  0.938E-03
  19.167  0.955E-03  0.955E-03
  19.182  0.972E-03  0.972E-03
  19.197  0.990E-03  0.990E-03
  19.212  0.101E-02  0.101E-02
  19.227  0.103E-02  0.103E-02
  19.242  0.104E-02  0.104E-02
  19.257  0.106E-02  0.106E-02
  19.272  0.107E-02  0.107E-02
  19.287  0.109E-02  0.109E-02
  19.302  0.110E-02  0.110E-02
  19.317  0.111E-02  0.111E-02
  19.332  0.111E-02  0.111E-02
  19.347  0.112E-02  0.112E-02
  19.362  0.112E-02  0.112E-02
  19.377  0.111E-02  0.111E-02
  19.392  0.111E-02  0.111E-02
  19.407  0.110E-02  0.110E-02
  19.422  0.108E-02  0.108E-02
  19.437  0.107E-02  0.107E-02
  19.452  0.105E-02  0.105E-02
  19.467  0.102E-02  0.102E-02
  19.482  0.996E-03  0.996E-03
  19.497  0.968E-03  0.968E-03
  19.512  0.936E-03  0.936E-03
  19.527  0.903E-03  0.903E-03
  19.542  0.869E-03  0.869E-03
  19.557  0.833E-03  0.833E-03
  19.572  0.797E-03  0.797E-03
  19.587  0.760E-03  0.760E-03
  19.602  0.723E-03  0.723E-03
  19.617  0.687E-03  0.687E-03
  19.632  0.652E-03  0.652E-03
  19.647  0.617E-03  0.617E-03
  19.662  0.584E-03  0.584E-03
  19.677  0.552E-03  0.552E-03
  19.692  0.522E-03  0.522E-03
  19.707  0.494E-03  0.494E-03
  19.722  0.467E-03  0.467E-03
  19.737  0.443E-03  0.443E-03
  19.752  0.420E-03  0.420E-03
  19.767  0.400E-03  0.400E-03
  19.782  0.381E-03  0.381E-03
  19.797  0.365E-03  0.365E-03
  19.812  0.350E-03  0.350E-03
  19.827  0.337E-03  0.337E-03
  19.842  0.325E-03  0.325E-03
  19.857  0.315E-03  0.315E-03
  19.872  0.307E-03  0.307E-03
  19.887  0.300E-03  0.300E-03
  19.902  0.294E-03  0.294E-03
  19.917  0.289E-03  0.289E-03
  19.932  0.285E-03  0.285E-03
  19.947  0.283E-03  0.283E-03
  19.962  0.281E-03  0.281E-03
  19.977  0.281E-03  0.281E-03
  19.992  0.281E-03  0.281E-03
  20.007  0.282E-03  0.282E-03
  20.022  0.284E-03  0.284E-03
  20.037  0.287E-03  0.287E-03
  20.052  0.291E-03  0.291E-03
  20.067  0.295E-03  0.295E-03
  20.082  0.300E-03  0.300E-03
  20.097  0.307E-03  0.307E-03
  20.112  0.314E-03  0.314E-03
  20.127  0.322E-03  0.322E-03
  20.142  0.331E-03  0.331E-03
  20.157  0.341E-03  0.341E-03
  20.172  0.353E-03  0.353E-03
  20.187  0.365E-03  0.365E-03
  20.202  0.380E-03  0.380E-03
  20.217  0.395E-03  0.395E-03
  20.232  0.412E-03  0.412E-03
  20.247  0.431E-03  0.431E-03
  20.262  0.452E-03  0.452E-03
  20.277  0.475E-03  0.475E-03
  20.292  0.499E-03  0.499E-03
  20.307  0.527E-03  0.527E-03
  20.322  0.556E-03  0.556E-03
  20.337  0.589E-03  0.589E-03
  20.352  0.623E-03  0.623E-03
  20.367  0.661E-03  0.661E-03
  20.382  0.702E-03  0.702E-03
  20.397  0.746E-03  0.746E-03
  20.412  0.792E-03  0.792E-03
  20.427  0.842E-03  0.842E-03
  20.442  0.895E-03  0.895E-03
  20.457  0.951E-03  0.951E-03
  20.472  0.101E-02  0.101E-02
  20.487  0.107E-02  0.107E-02
  20.502  0.113E-02  0.113E-02
  20.517  0.120E-02  0.120E-02
  20.532  0.127E-02  0.127E-02
  20.547  0.133E-02  0.133E-02
  20.562  0.140E-02  0.140E-02
  20.577  0.147E-02  0.147E-02
  20.592  0.154E-02  0.154E-02
  20.607  0.160E-02  0.160E-02
  20.622  0.167E-02  0.167E-02
  20.637  0.173E-02  0.173E-02
  20.652  0.179E-02  0.179E-02
  20.667  0.184E-02  0.184E-02
  20.682  0.189E-02  0.189E-02
  20.697  0.194E-02  0.194E-02
  20.712  0.197E-02  0.197E-02
  20.727  0.201E-02  0.201E-02
  20.742  0.204E-02  0.204E-02
  20.757  0.206E-02  0.206E-02
  20.772  0.207E-02  0.207E-02
  20.787  0.208E-02  0.208E-02
  20.802  0.209E-02  0.209E-02
  20.817  0.208E-02  0.208E-02
  20.832  0.208E-02  0.208E-02
  20.847  0.207E-02  0.207E-02
  20.862  0.205E-02  0.205E-02
  20.877  0.203E-02  0.203E-02
  20.892  0.200E-02  0.200E-02
  20.907  0.198E-02  0.198E-02
  20.922  0.195E-02  0.195E-02
  20.937  0.192E-02  0.192E-02
  20.952  0.189E-02  0.189E-02
  20.967  0.186E-02  0.186E-02
  20.982  0.182E-02  0.182E-02
  20.997  0.179E-02  0.179E-02
  21.012  0.176E-02  0.176E-02
  21.027  0.173E-02  0.173E-02
  21.042  0.170E-02  0.170E-02
  21.057  0.167E-02  0.167E-02
  21.072  0.165E-02  0.165E-02
  21.087  0.162E-02  0.162E-02
  21.102  0.160E-02  0.160E-02
  21.117  0.158E-02  0.158E-02
  21.132  0.156E-02  0.156E-02
  21.147  0.154E-02  0.154E-02
  21.162  0.153E-02  0.153E-02
  21.177  0.151E-02  0.151E-02
  21.192  0.150E-02  0.150E-02
  21.207  0.148E-02  0.148E-02
  21.222  0.147E-02  0.147E-02
  21.237  0.146E-02  0.146E-02
  21.252  0.144E-02  0.144E-02
  21.267  0.143E-02  0.143E-02
  21.282  0.142E-02  0.142E-02
  21.297  0.141E-02  0.141E-02
  21.312  0.140E-02  0.140E-02
  21.327  0.139E-02  0.139E-02
  21.342  0.138E-02  0.138E-02
  21.357  0.137E-02  0.137E-02
  21.372  0.135E-02  0.135E-02
  21.387  0.134E-02  0.134E-02
  21.402  0.133E-02  0.133E-02
  21.417  0.132E-02  0.132E-02
  21.432  0.131E-02  0.131E-02
  21.447  0.130E-02  0.130E-02
  21.462  0.129E-02  0.129E-02
  21.477  0.128E-02  0.128E-02
  21.492  0.127E-02  0.127E-02
  21.507  0.126E-02  0.126E-02
  21.522  0.125E-02  0.125E-02
  21.537  0.124E-02  0.124E-02
  21.552  0.123E-02  0.123E-02
  21.567  0.122E-02  0.122E-02
  21.582  0.121E-02  0.121E-02
  21.597  0.121E-02  0.121E-02
  21.612  0.120E-02  0.120E-02
  21.627  0.120E-02  0.120E-02
  21.642  0.120E-02  0.120E-02
  21.657  0.119E-02  0.119E-02
  21.672  0.119E-02  0.119E-02
  21.687  0.119E-02  0.119E-02
  21.702  0.119E-02  0.119E-02
  21.717  0.119E-02  0.119E-02
  21.732  0.119E-02  0.119E-02
  21.747  0.119E-02  0.119E-02
  21.762  0.120E-02  0.120E-02
  21.777  0.120E-02  0.120E-02
  21.792  0.120E-02  0.120E-02
  21.807  0.120E-02  0.120E-02
  21.822  0.120E-02  0.120E-02
  21.837  0.120E-02  0.120E-02
  21.852  0.119E-02  0.119E-02
  21.867  0.119E-02  0.119E-02
  21.882  0.119E-02  0.119E-02
  21.897  0.118E-02  0.118E-02
  21.912  0.117E-02  0.117E-02
  21.927  0.117E-02  0.117E-02
  21.942  0.116E-02  0.116E-02
  21.957  0.115E-02  0.115E-02
  21.972  0.114E-02  0.114E-02
  21.987  0.113E-02  0.113E-02
  22.002  0.111E-02  0.111E-02
  22.017  0.110E-02  0.110E-02
  22.032  0.109E-02  0.109E-02
  22.047  0.108E-02  0.108E-02
  22.062  0.107E-02  0.107E-02
  22.077  0.106E-02  0.106E-02
  22.092  0.105E-02  0.105E-02
  22.107  0.105E-02  0.105E-02
  22.122  0.104E-02  0.104E-02
  22.137  0.103E-02  0.103E-02
  22.152  0.103E-02  0.103E-02
  22.167  0.103E-02  0.103E-02
  22.182  0.103E-02  0.103E-02
  22.197  0.103E-02  0.103E-02
  22.212  0.103E-02  0.103E-02
  22.227  0.103E-02  0.103E-02
  22.242  0.104E-02  0.104E-02
  22.257  0.104E-02  0.104E-02
  22.272  0.104E-02  0.104E-02
  22.287  0.105E-02  0.105E-02
  22.302  0.105E-02  0.105E-02
  22.317  0.106E-02  0.106E-02
  22.332  0.106E-02  0.106E-02
  22.347  0.106E-02  0.106E-02
  22.362  0.106E-02  0.106E-02
  22.377  0.106E-02  0.106E-02
  22.392  0.106E-02  0.106E-02
  22.407  0.106E-02  0.106E-02
  22.422  0.105E-02  0.105E-02
  22.437  0.105E-02  0.105E-02
  22.452  0.104E-02  0.104E-02
  22.467  0.103E-02  0.103E-02
  22.482  0.102E-02  0.102E-02
  22.497  0.101E-02  0.101E-02
  22.512  0.100E-02  0.100E-02
  22.527  0.989E-03  0.989E-03
  22.542  0.976E-03  0.976E-03
  22.557  0.964E-03  0.964E-03
  22.572  0.951E-03  0.951E-03
  22.587  0.939E-03  0.939E-03
  22.602  0.927E-03  0.927E-03
  22.617  0.917E-03  0.917E-03
  22.632  0.907E-03  0.907E-03
  22.647  0.898E-03  0.898E-03
  22.662  0.891E-03  0.891E-03
  22.677  0.885E-03  0.885E-03
  22.692  0.881E-03  0.881E-03
  22.707  0.878E-03  0.878E-03
  22.722  0.877E-03  0.877E-03
  22.737  0.877E-03  0.877E-03
  22.752  0.879E-03  0.879E-03
  22.767  0.882E-03  0.882E-03
  22.782  0.886E-03  0.886E-03
  22.797  0.892E-03  0.892E-03
  22.812  0.898E-03  0.898E-03
  22.827  0.905E-03  0.905E-03
  22.842  0.913E-03  0.913E-03
  22.857  0.921E-03  0.921E-03
  22.872  0.929E-03  0.929E-03
  22.887  0.936E-03  0.936E-03
  22.902  0.944E-03  0.944E-03
  22.917  0.950E-03  0.950E-03
  22.932  0.956E-03  0.956E-03
  22.947  0.961E-03  0.961E-03
  22.962  0.965E-03  0.965E-03
  22.977  0.968E-03  0.968E-03
  22.992  0.969E-03  0.969E-03
  23.007  0.969E-03  0.969E-03
  23.022  0.968E-03  0.968E-03
  23.037  0.965E-03  0.965E-03
  23.052  0.961E-03  0.961E-03
  23.067  0.955E-03  0.955E-03
  23.082  0.949E-03  0.949E-03
  23.097  0.941E-03  0.941E-03
  23.112  0.932E-03  0.932E-03
  23.127  0.922E-03  0.922E-03
  23.142  0.911E-03  0.911E-03
  23.157  0.900E-03  0.900E-03
  23.172  0.889E-03  0.889E-03
  23.187  0.877E-03  0.877E-03
  23.202  0.864E-03  0.864E-03
  23.217  0.852E-03  0.852E-03
  23.232  0.840E-03  0.840E-03
  23.247  0.828E-03  0.828E-03
  23.262  0.816E-03  0.816E-03
  23.277  0.804E-03  0.804E-03
  23.292  0.793E-03  0.793E-03
  23.307  0.782E-03  0.782E-03
  23.322  0.771E-03  0.771E-03
  23.337  0.761E-03  0.761E-03
  23.352  0.752E-03  0.752E-03
  23.367  0.743E-03  0.743E-03
  23.382  0.734E-03  0.734E-03
  23.397  0.726E-03  0.726E-03
  23.412  0.719E-03  0.719E-03
  23.427  0.711E-03  0.711E-03
  23.442  0.705E-03  0.705E-03
  23.457  0.699E-03  0.699E-03
  23.472  0.694E-03  0.694E-03
  23.487  0.689E-03  0.689E-03
  23.502  0.684E-03  0.684E-03
  23.517  0.681E-03  0.681E-03
  23.532  0.677E-03  0.677E-03
  23.547  0.674E-03  0.674E-03
  23.562  0.672E-03  0.672E-03
  23.577  0.670E-03  0.670E-03
  23.592  0.668E-03  0.668E-03
  23.607  0.666E-03  0.666E-03
  23.622  0.664E-03  0.664E-03
  23.637  0.662E-03  0.662E-03
  23.652  0.660E-03  0.660E-03
  23.667  0.658E-03  0.658E-03
  23.682  0.656E-03  0.656E-03
  23.697  0.652E-03  0.652E-03
  23.712  0.649E-03  0.649E-03
  23.727  0.644E-03  0.644E-03
  23.742  0.639E-03  0.639E-03
  23.757  0.633E-03  0.633E-03
  23.772  0.626E-03  0.626E-03
  23.787  0.619E-03  0.619E-03
  23.802  0.610E-03  0.610E-03
  23.817  0.601E-03  0.601E-03
  23.832  0.590E-03  0.590E-03
  23.847  0.580E-03  0.580E-03
  23.862  0.568E-03  0.568E-03
  23.877  0.556E-03  0.556E-03
  23.892  0.543E-03  0.543E-03
  23.907  0.530E-03  0.530E-03
  23.922  0.517E-03  0.517E-03
  23.937  0.504E-03  0.504E-03
  23.952  0.491E-03  0.491E-03
  23.967  0.479E-03  0.479E-03
  23.982  0.466E-03  0.466E-03
  23.997  0.454E-03  0.454E-03
  24.012  0.442E-03  0.442E-03
  24.027  0.431E-03  0.431E-03
  24.042  0.421E-03  0.421E-03
  24.057  0.411E-03  0.411E-03
  24.072  0.401E-03  0.401E-03
  24.087  0.393E-03  0.393E-03
  24.102  0.385E-03  0.385E-03
  24.117  0.378E-03  0.378E-03
  24.132  0.372E-03  0.372E-03
  24.147  0.367E-03  0.367E-03
  24.162  0.362E-03  0.362E-03
  24.177  0.358E-03  0.358E-03
  24.192  0.355E-03  0.355E-03
  24.207  0.352E-03  0.352E-03
  24.222  0.350E-03  0.350E-03
  24.237  0.349E-03  0.349E-03
  24.252  0.348E-03  0.348E-03
  24.267  0.348E-03  0.348E-03
  24.282  0.348E-03  0.348E-03
  24.297  0.349E-03  0.349E-03
  24.312  0.350E-03  0.350E-03
  24.327  0.352E-03  0.352E-03
  24.342  0.354E-03  0.354E-03
  24.357  0.356E-03  0.356E-03
  24.372  0.358E-03  0.358E-03
  24.387  0.361E-03  0.361E-03
  24.402  0.364E-03  0.364E-03
  24.417  0.368E-03  0.368E-03
  24.432  0.371E-03  0.371E-03
  24.447  0.374E-03  0.374E-03
  24.462  0.378E-03  0.378E-03
  24.477  0.382E-03  0.382E-03
  24.492  0.386E-03  0.386E-03
  24.507  0.390E-03  0.390E-03
  24.522  0.394E-03  0.394E-03
  24.537  0.398E-03  0.398E-03
  24.552  0.402E-03  0.402E-03
  24.567  0.407E-03  0.407E-03
  24.582  0.412E-03  0.412E-03
  24.597  0.417E-03  0.417E-03
  24.612  0.422E-03  0.422E-03
  24.627  0.428E-03  0.428E-03
  24.642  0.434E-03  0.434E-03
  24.657  0.440E-03  0.440E-03
  24.672  0.446E-03  0.446E-03
  24.687  0.453E-03  0.453E-03
  24.702  0.460E-03  0.460E-03
  24.717  0.467E-03  0.467E-03
  24.732  0.475E-03  0.475E-03
  24.747  0.483E-03  0.483E-03
  24.762  0.490E-03  0.490E-03
  24.777  0.498E-03  0.498E-03
  24.792  0.506E-03  0.506E-03
  24.807  0.513E-03  0.513E-03
  24.822  0.520E-03  0.520E-03
  24.837  0.527E-03  0.527E-03
  24.852  0.533E-03  0.533E-03
  24.867  0.538E-03  0.538E-03
  24.882  0.543E-03  0.543E-03
  24.897  0.547E-03  0.547E-03
  24.912  0.550E-03  0.550E-03
  24.927  0.552E-03  0.552E-03
  24.942  0.553E-03  0.553E-03
  24.957  0.553E-03  0.553E-03
  24.972  0.551E-03  0.551E-03
  24.987  0.549E-03  0.549E-03
  25.002  0.545E-03  0.545E-03
  25.017  0.541E-03  0.541E-03
  25.032  0.535E-03  0.535E-03
  25.047  0.528E-03  0.528E-03
  25.062  0.521E-03  0.521E-03
  25.077  0.512E-03  0.512E-03
  25.092  0.503E-03  0.503E-03
  25.107  0.493E-03  0.493E-03
  25.122  0.483E-03  0.483E-03
  25.137  0.473E-03  0.473E-03
  25.152  0.462E-03  0.462E-03
  25.167  0.452E-03  0.452E-03
  25.182  0.441E-03  0.441E-03
  25.197  0.431E-03  0.431E-03
  25.212  0.421E-03  0.421E-03
  25.227  0.411E-03  0.411E-03
  25.242  0.402E-03  0.402E-03
  25.257  0.393E-03  0.393E-03
  25.272  0.386E-03  0.386E-03
  25.287  0.379E-03  0.379E-03
  25.302  0.373E-03  0.373E-03
  25.317  0.367E-03  0.367E-03
  25.332  0.363E-03  0.363E-03
  25.347  0.359E-03  0.359E-03
  25.362  0.356E-03  0.356E-03
  25.377  0.355E-03  0.355E-03
  25.392  0.354E-03  0.354E-03
  25.407  0.353E-03  0.353E-03
  25.422  0.354E-03  0.354E-03
  25.437  0.355E-03  0.355E-03
  25.452  0.357E-03  0.357E-03
  25.467  0.359E-03  0.359E-03
  25.482  0.362E-03  0.362E-03
  25.497  0.366E-03  0.366E-03
  25.512  0.370E-03  0.370E-03
  25.527  0.375E-03  0.375E-03
  25.542  0.380E-03  0.380E-03
  25.557  0.385E-03  0.385E-03
  25.572  0.391E-03  0.391E-03
  25.587  0.397E-03  0.397E-03
  25.602  0.404E-03  0.404E-03
  25.617  0.411E-03  0.411E-03
  25.632  0.419E-03  0.419E-03
  25.647  0.427E-03  0.427E-03
  25.662  0.436E-03  0.436E-03
  25.677  0.446E-03  0.446E-03
  25.692  0.456E-03  0.456E-03
  25.707  0.467E-03  0.467E-03
  25.722  0.479E-03  0.479E-03
  25.737  0.491E-03  0.491E-03
  25.752  0.505E-03  0.505E-03
  25.767  0.519E-03  0.519E-03
  25.782  0.534E-03  0.534E-03
  25.797  0.550E-03  0.550E-03
  25.812  0.567E-03  0.567E-03
  25.827  0.584E-03  0.584E-03
  25.842  0.602E-03  0.602E-03
  25.857  0.621E-03  0.621E-03
  25.872  0.639E-03  0.639E-03
  25.887  0.659E-03  0.659E-03
  25.902  0.678E-03  0.678E-03
  25.917  0.697E-03  0.697E-03
  25.932  0.715E-03  0.715E-03
  25.947  0.733E-03  0.733E-03
  25.962  0.751E-03  0.751E-03
  25.977  0.767E-03  0.767E-03
  25.992  0.783E-03  0.783E-03
  26.007  0.797E-03  0.797E-03
  26.022  0.810E-03  0.810E-03
  26.037  0.821E-03  0.821E-03
  26.052  0.831E-03  0.831E-03
  26.067  0.839E-03  0.839E-03
  26.082  0.845E-03  0.845E-03
  26.097  0.850E-03  0.850E-03
  26.112  0.852E-03  0.852E-03
  26.127  0.853E-03  0.853E-03
  26.142  0.852E-03  0.852E-03
  26.157  0.849E-03  0.849E-03
  26.172  0.844E-03  0.844E-03
  26.187  0.838E-03  0.838E-03
  26.202  0.830E-03  0.830E-03
  26.217  0.820E-03  0.820E-03
  26.232  0.810E-03  0.810E-03
  26.247  0.798E-03  0.798E-03
  26.262  0.784E-03  0.784E-03
  26.277  0.770E-03  0.770E-03
  26.292  0.755E-03  0.755E-03
  26.307  0.740E-03  0.740E-03
  26.322  0.723E-03  0.723E-03
  26.337  0.706E-03  0.706E-03
  26.352  0.689E-03  0.689E-03
  26.367  0.672E-03  0.672E-03
  26.382  0.654E-03  0.654E-03
  26.397  0.636E-03  0.636E-03
  26.412  0.619E-03  0.619E-03
  26.427  0.601E-03  0.601E-03
  26.442  0.584E-03  0.584E-03
  26.457  0.567E-03  0.567E-03
  26.472  0.550E-03  0.550E-03
  26.487  0.533E-03  0.533E-03
  26.502  0.517E-03  0.517E-03
  26.517  0.501E-03  0.501E-03
  26.532  0.485E-03  0.485E-03
  26.547  0.470E-03  0.470E-03
  26.562  0.456E-03  0.456E-03
  26.577  0.441E-03  0.441E-03
  26.592  0.428E-03  0.428E-03
  26.607  0.414E-03  0.414E-03
  26.622  0.401E-03  0.401E-03
  26.637  0.389E-03  0.389E-03
  26.652  0.376E-03  0.376E-03
  26.667  0.365E-03  0.365E-03
  26.682  0.353E-03  0.353E-03
  26.697  0.342E-03  0.342E-03
  26.712  0.332E-03  0.332E-03
  26.727  0.321E-03  0.321E-03
  26.742  0.311E-03  0.311E-03
  26.757  0.302E-03  0.302E-03
  26.772  0.293E-03  0.293E-03
  26.787  0.284E-03  0.284E-03
  26.802  0.275E-03  0.275E-03
  26.817  0.267E-03  0.267E-03
  26.832  0.259E-03  0.259E-03
  26.847  0.252E-03  0.252E-03
  26.862  0.245E-03  0.245E-03
  26.877  0.238E-03  0.238E-03
  26.892  0.231E-03  0.231E-03
  26.907  0.225E-03  0.225E-03
  26.922  0.219E-03  0.219E-03
  26.937  0.214E-03  0.214E-03
  26.952  0.209E-03  0.209E-03
  26.967  0.204E-03  0.204E-03
  26.982  0.199E-03  0.199E-03
  26.997  0.195E-03  0.195E-03
  27.012  0.191E-03  0.191E-03
  27.027  0.188E-03  0.188E-03
  27.042  0.185E-03  0.185E-03
  27.057  0.182E-03  0.182E-03
  27.072  0.179E-03  0.179E-03
  27.087  0.177E-03  0.177E-03
  27.102  0.175E-03  0.175E-03
  27.117  0.173E-03  0.173E-03
  27.132  0.171E-03  0.171E-03
  27.147  0.170E-03  0.170E-03
  27.162  0.168E-03  0.168E-03
  27.177  0.167E-03  0.167E-03
  27.192  0.166E-03  0.166E-03
  27.207  0.165E-03  0.165E-03
  27.222  0.164E-03  0.164E-03
  27.237  0.163E-03  0.163E-03
  27.252  0.163E-03  0.163E-03
  27.267  0.162E-03  0.162E-03
  27.282  0.161E-03  0.161E-03
  27.297  0.161E-03  0.161E-03
  27.312  0.160E-03  0.160E-03
  27.327  0.159E-03  0.159E-03
  27.342  0.159E-03  0.159E-03
  27.357  0.158E-03  0.158E-03
  27.372  0.158E-03  0.158E-03
  27.387  0.157E-03  0.157E-03
  27.402  0.157E-03  0.157E-03
  27.417  0.157E-03  0.157E-03
  27.432  0.157E-03  0.157E-03
  27.447  0.157E-03  0.157E-03
  27.462  0.157E-03  0.157E-03
  27.477  0.157E-03  0.157E-03
  27.492  0.158E-03  0.158E-03
  27.507  0.158E-03  0.158E-03
  27.522  0.159E-03  0.159E-03
  27.537  0.160E-03  0.160E-03
  27.552  0.160E-03  0.160E-03
  27.567  0.161E-03  0.161E-03
  27.582  0.162E-03  0.162E-03
  27.597  0.163E-03  0.163E-03
  27.612  0.164E-03  0.164E-03
  27.627  0.165E-03  0.165E-03
  27.642  0.165E-03  0.165E-03
  27.657  0.166E-03  0.166E-03
  27.672  0.167E-03  0.167E-03
  27.687  0.167E-03  0.167E-03
  27.702  0.167E-03  0.167E-03
  27.717  0.167E-03  0.167E-03
  27.732  0.167E-03  0.167E-03
  27.747  0.167E-03  0.167E-03
  27.762  0.166E-03  0.166E-03
  27.777  0.165E-03  0.165E-03
  27.792  0.164E-03  0.164E-03
  27.807  0.163E-03  0.163E-03
  27.822  0.162E-03  0.162E-03
  27.837  0.161E-03  0.161E-03
  27.852  0.159E-03  0.159E-03
  27.867  0.158E-03  0.158E-03
  27.882  0.156E-03  0.156E-03
  27.897  0.155E-03  0.155E-03
  27.912  0.153E-03  0.153E-03
  27.927  0.152E-03  0.152E-03
  27.942  0.150E-03  0.150E-03
  27.957  0.148E-03  0.148E-03
  27.972  0.147E-03  0.147E-03
  27.987  0.145E-03  0.145E-03
  28.002  0.144E-03  0.144E-03
  28.017  0.142E-03  0.142E-03
  28.032  0.141E-03  0.141E-03
  28.047  0.139E-03  0.139E-03
  28.062  0.138E-03  0.138E-03
  28.077  0.137E-03  0.137E-03
  28.092  0.135E-03  0.135E-03
  28.107  0.134E-03  0.134E-03
  28.122  0.133E-03  0.133E-03
  28.137  0.132E-03  0.132E-03
  28.152  0.131E-03  0.131E-03
  28.167  0.130E-03  0.130E-03
  28.182  0.129E-03  0.129E-03
  28.197  0.128E-03  0.128E-03
  28.212  0.126E-03  0.126E-03
  28.227  0.125E-03  0.125E-03
  28.242  0.125E-03  0.125E-03
  28.257  0.124E-03  0.124E-03
  28.272  0.123E-03  0.123E-03
  28.287  0.122E-03  0.122E-03
  28.302  0.122E-03  0.122E-03
  28.317  0.121E-03  0.121E-03
  28.332  0.121E-03  0.121E-03
  28.347  0.121E-03  0.121E-03
  28.362  0.121E-03  0.121E-03
  28.377  0.121E-03  0.121E-03
  28.392  0.122E-03  0.122E-03
  28.407  0.123E-03  0.123E-03
  28.422  0.124E-03  0.124E-03
  28.437  0.125E-03  0.125E-03
  28.452  0.127E-03  0.127E-03
  28.467  0.129E-03  0.129E-03
  28.482  0.131E-03  0.131E-03
  28.497  0.134E-03  0.134E-03
  28.512  0.137E-03  0.137E-03
  28.527  0.140E-03  0.140E-03
  28.542  0.143E-03  0.143E-03
  28.557  0.147E-03  0.147E-03
  28.572  0.151E-03  0.151E-03
  28.587  0.155E-03  0.155E-03
  28.602  0.159E-03  0.159E-03
  28.617  0.163E-03  0.163E-03
  28.632  0.167E-03  0.167E-03
  28.647  0.172E-03  0.172E-03
  28.662  0.176E-03  0.176E-03
  28.677  0.180E-03  0.180E-03
  28.692  0.184E-03  0.184E-03
  28.707  0.187E-03  0.187E-03
  28.722  0.190E-03  0.190E-03
  28.737  0.193E-03  0.193E-03
  28.752  0.196E-03  0.196E-03
  28.767  0.198E-03  0.198E-03
  28.782  0.200E-03  0.200E-03
  28.797  0.202E-03  0.202E-03
  28.812  0.203E-03  0.203E-03
  28.827  0.204E-03  0.204E-03
  28.842  0.204E-03  0.204E-03
  28.857  0.204E-03  0.204E-03
  28.872  0.203E-03  0.203E-03
  28.887  0.203E-03  0.203E-03
  28.902  0.202E-03  0.202E-03
  28.917  0.200E-03  0.200E-03
  28.932  0.199E-03  0.199E-03
  28.947  0.197E-03  0.197E-03
  28.962  0.195E-03  0.195E-03
  28.977  0.193E-03  0.193E-03
  28.992  0.191E-03  0.191E-03
  29.007  0.189E-03  0.189E-03
  29.022  0.187E-03  0.187E-03
  29.037  0.185E-03  0.185E-03
  29.052  0.183E-03  0.183E-03
  29.067  0.181E-03  0.181E-03
  29.082  0.180E-03  0.180E-03
  29.097  0.178E-03  0.178E-03
  29.112  0.177E-03  0.177E-03
  29.127  0.176E-03  0.176E-03
  29.142  0.176E-03  0.176E-03
  29.157  0.175E-03  0.175E-03
  29.172  0.175E-03  0.175E-03
  29.187  0.175E-03  0.175E-03
  29.202  0.175E-03  0.175E-03
  29.217  0.175E-03  0.175E-03
  29.232  0.175E-03  0.175E-03
  29.247  0.176E-03  0.176E-03
  29.262  0.176E-03  0.176E-03
  29.277  0.177E-03  0.177E-03
  29.292  0.177E-03  0.177E-03
  29.307  0.178E-03  0.178E-03
  29.322  0.178E-03  0.178E-03
  29.337  0.178E-03  0.178E-03
  29.352  0.179E-03  0.179E-03
  29.367  0.179E-03  0.179E-03
  29.382  0.179E-03  0.179E-03
  29.397  0.179E-03  0.179E-03
  29.412  0.178E-03  0.178E-03
  29.427  0.178E-03  0.178E-03
  29.442  0.177E-03  0.177E-03
  29.457  0.176E-03  0.176E-03
  29.472  0.175E-03  0.175E-03
  29.487  0.174E-03  0.174E-03
  29.502  0.173E-03  0.173E-03
  29.517  0.171E-03  0.171E-03
  29.532  0.169E-03  0.169E-03
  29.547  0.167E-03  0.167E-03
  29.562  0.165E-03  0.165E-03
  29.577  0.163E-03  0.163E-03
  29.592  0.161E-03  0.161E-03
  29.607  0.158E-03  0.158E-03
  29.622  0.156E-03  0.156E-03
  29.637  0.153E-03  0.153E-03
  29.652  0.151E-03  0.151E-03
  29.667  0.148E-03  0.148E-03
  29.682  0.146E-03  0.146E-03
  29.697  0.143E-03  0.143E-03
  29.712  0.140E-03  0.140E-03
  29.727  0.138E-03  0.138E-03
  29.742  0.135E-03  0.135E-03
  29.757  0.133E-03  0.133E-03
  29.772  0.130E-03  0.130E-03
  29.787  0.127E-03  0.127E-03
  29.802  0.125E-03  0.125E-03
  29.817  0.122E-03  0.122E-03
  29.832  0.120E-03  0.120E-03
  29.847  0.117E-03  0.117E-03
  29.862  0.115E-03  0.115E-03
  29.877  0.113E-03  0.113E-03
  29.892  0.110E-03  0.110E-03
  29.907  0.108E-03  0.108E-03
  29.922  0.105E-03  0.105E-03
  29.937  0.103E-03  0.103E-03
  29.952  0.101E-03  0.101E-03
  29.967  0.987E-04  0.987E-04
  29.982  0.965E-04  0.965E-04
  29.997  0.943E-04  0.943E-04
  30.012  0.922E-04  0.922E-04
  30.027  0.902E-04  0.902E-04
  30.042  0.882E-04  0.882E-04
  30.057  0.863E-04  0.863E-04
  30.072  0.845E-04  0.845E-04
  30.087  0.828E-04  0.828E-04
  30.102  0.812E-04  0.812E-04
  30.117  0.797E-04  0.797E-04
  30.132  0.784E-04  0.784E-04
  30.147  0.771E-04  0.771E-04
  30.162  0.760E-04  0.760E-04
  30.177  0.750E-04  0.750E-04
  30.192  0.741E-04  0.741E-04
  30.207  0.733E-04  0.733E-04
  30.222  0.727E-04  0.727E-04
  30.237  0.722E-04  0.722E-04
  30.252  0.719E-04  0.719E-04
  30.267  0.717E-04  0.717E-04
  30.282  0.715E-04  0.715E-04
  30.297  0.715E-04  0.715E-04
  30.312  0.717E-04  0.717E-04
  30.327  0.719E-04  0.719E-04
  30.342  0.722E-04  0.722E-04
  30.357  0.727E-04  0.727E-04
  30.372  0.733E-04  0.733E-04
  30.387  0.740E-04  0.740E-04
  30.402  0.749E-04  0.749E-04
  30.417  0.759E-04  0.759E-04
  30.432  0.770E-04  0.770E-04
  30.447  0.784E-04  0.784E-04
  30.462  0.800E-04  0.800E-04
  30.477  0.818E-04  0.818E-04
  30.492  0.840E-04  0.840E-04
  30.507  0.865E-04  0.865E-04
  30.522  0.894E-04  0.894E-04
  30.537  0.929E-04  0.929E-04
  30.552  0.969E-04  0.969E-04
  30.567  0.101E-03  0.101E-03
  30.582  0.107E-03  0.107E-03
  30.597  0.113E-03  0.113E-03
  30.612  0.120E-03  0.120E-03
  30.627  0.129E-03  0.129E-03
  30.642  0.138E-03  0.138E-03
  30.657  0.149E-03  0.149E-03
  30.672  0.161E-03  0.161E-03
  30.687  0.175E-03  0.175E-03
  30.702  0.191E-03  0.191E-03
  30.717  0.208E-03  0.208E-03
  30.732  0.228E-03  0.228E-03
  30.747  0.249E-03  0.249E-03
  30.762  0.272E-03  0.272E-03
  30.777  0.298E-03  0.298E-03
  30.792  0.325E-03  0.325E-03
  30.807  0.354E-03  0.354E-03
  30.822  0.386E-03  0.386E-03
  30.837  0.418E-03  0.418E-03
  30.852  0.453E-03  0.453E-03
  30.867  0.489E-03  0.489E-03
  30.882  0.526E-03  0.526E-03
  30.897  0.563E-03  0.563E-03
  30.912  0.602E-03  0.602E-03
  30.927  0.640E-03  0.640E-03
  30.942  0.677E-03  0.677E-03
  30.957  0.714E-03  0.714E-03
  30.972  0.750E-03  0.750E-03
  30.987  0.784E-03  0.784E-03
  31.002  0.815E-03  0.815E-03
  31.017  0.844E-03  0.844E-03
  31.032  0.870E-03  0.870E-03
  31.047  0.893E-03  0.893E-03
  31.062  0.911E-03  0.911E-03
  31.077  0.926E-03  0.926E-03
  31.092  0.936E-03  0.936E-03
  31.107  0.942E-03  0.942E-03
  31.122  0.944E-03  0.944E-03
  31.137  0.941E-03  0.941E-03
  31.152  0.934E-03  0.934E-03
  31.167  0.922E-03  0.922E-03
  31.182  0.907E-03  0.907E-03
  31.197  0.888E-03  0.888E-03
  31.212  0.865E-03  0.865E-03
  31.227  0.840E-03  0.840E-03
  31.242  0.811E-03  0.811E-03
  31.257  0.781E-03  0.781E-03
  31.272  0.749E-03  0.749E-03
  31.287  0.716E-03  0.716E-03
  31.302  0.682E-03  0.682E-03
  31.317  0.648E-03  0.648E-03
  31.332  0.613E-03  0.613E-03
  31.347  0.579E-03  0.579E-03
  31.362  0.546E-03  0.546E-03
  31.377  0.514E-03  0.514E-03
  31.392  0.483E-03  0.483E-03
  31.407  0.454E-03  0.454E-03
  31.422  0.426E-03  0.426E-03
  31.437  0.400E-03  0.400E-03
  31.452  0.375E-03  0.375E-03
  31.467  0.353E-03  0.353E-03
  31.482  0.332E-03  0.332E-03
  31.497  0.313E-03  0.313E-03
  31.512  0.296E-03  0.296E-03
  31.527  0.280E-03  0.280E-03
  31.542  0.266E-03  0.266E-03
  31.557  0.254E-03  0.254E-03
  31.572  0.242E-03  0.242E-03
  31.587  0.232E-03  0.232E-03
  31.602  0.223E-03  0.223E-03
  31.617  0.215E-03  0.215E-03
  31.632  0.208E-03  0.208E-03
  31.647  0.202E-03  0.202E-03
  31.662  0.197E-03  0.197E-03
  31.677  0.192E-03  0.192E-03
  31.692  0.188E-03  0.188E-03
  31.707  0.184E-03  0.184E-03
  31.722  0.181E-03  0.181E-03
  31.737  0.178E-03  0.178E-03
  31.752  0.175E-03  0.175E-03
  31.767  0.173E-03  0.173E-03
  31.782  0.171E-03  0.171E-03
  31.797  0.169E-03  0.169E-03
  31.812  0.168E-03  0.168E-03
  31.827  0.167E-03  0.167E-03
  31.842  0.166E-03  0.166E-03
  31.857  0.165E-03  0.165E-03
  31.872  0.164E-03  0.164E-03
  31.887  0.164E-03  0.164E-03
  31.902  0.163E-03  0.163E-03
  31.917  0.163E-03  0.163E-03
  31.932  0.163E-03  0.163E-03
  31.947  0.162E-03  0.162E-03
  31.962  0.162E-03  0.162E-03
  31.977  0.162E-03  0.162E-03
  31.992  0.161E-03  0.161E-03
  32.007  0.161E-03  0.161E-03
  32.022  0.160E-03  0.160E-03
  32.037  0.159E-03  0.159E-03
  32.052  0.158E-03  0.158E-03
  32.067  0.157E-03  0.157E-03
  32.082  0.156E-03  0.156E-03
  32.097  0.154E-03  0.154E-03
  32.112  0.152E-03  0.152E-03
  32.127  0.150E-03  0.150E-03
  32.142  0.148E-03  0.148E-03
  32.157  0.146E-03  0.146E-03
  32.172  0.144E-03  0.144E-03
  32.187  0.141E-03  0.141E-03
  32.202  0.138E-03  0.138E-03
  32.217  0.135E-03  0.135E-03
  32.232  0.132E-03  0.132E-03
  32.247  0.129E-03  0.129E-03
  32.262  0.126E-03  0.126E-03
  32.277  0.123E-03  0.123E-03
  32.292  0.120E-03  0.120E-03
  32.307  0.117E-03  0.117E-03
  32.322  0.114E-03  0.114E-03
  32.337  0.111E-03  0.111E-03
  32.352  0.108E-03  0.108E-03
  32.367  0.105E-03  0.105E-03
  32.382  0.102E-03  0.102E-03
  32.397  0.992E-04  0.992E-04
  32.412  0.965E-04  0.965E-04
  32.427  0.938E-04  0.938E-04
  32.442  0.912E-04  0.912E-04
  32.457  0.887E-04  0.887E-04
  32.472  0.863E-04  0.863E-04
  32.487  0.840E-04  0.840E-04
  32.502  0.817E-04  0.817E-04
  32.517  0.796E-04  0.796E-04
  32.532  0.775E-04  0.775E-04
  32.547  0.754E-04  0.754E-04
  32.562  0.735E-04  0.735E-04
  32.577  0.716E-04  0.716E-04
  32.592  0.698E-04  0.698E-04
  32.607  0.680E-04  0.680E-04
  32.622  0.664E-04  0.664E-04
  32.637  0.647E-04  0.647E-04
  32.652  0.632E-04  0.632E-04
  32.667  0.617E-04  0.617E-04
  32.682  0.603E-04  0.603E-04
  32.697  0.589E-04  0.589E-04
  32.712  0.576E-04  0.576E-04
  32.727  0.564E-04  0.564E-04
  32.742  0.553E-04  0.553E-04
  32.757  0.542E-04  0.542E-04
  32.772  0.533E-04  0.533E-04
  32.787  0.524E-04  0.524E-04
  32.802  0.516E-04  0.516E-04
  32.817  0.509E-04  0.509E-04
  32.832  0.502E-04  0.502E-04
  32.847  0.497E-04  0.497E-04
  32.862  0.492E-04  0.492E-04
  32.877  0.488E-04  0.488E-04
  32.892  0.485E-04  0.485E-04
  32.907  0.483E-04  0.483E-04
  32.922  0.481E-04  0.481E-04
  32.937  0.480E-04  0.480E-04
  32.952  0.480E-04  0.480E-04
  32.967  0.480E-04  0.480E-04
  32.982  0.481E-04  0.481E-04
  32.997  0.483E-04  0.483E-04
  33.012  0.485E-04  0.485E-04
  33.027  0.487E-04  0.487E-04
  33.042  0.491E-04  0.491E-04
  33.057  0.495E-04  0.495E-04
  33.072  0.499E-04  0.499E-04
  33.087  0.505E-04  0.505E-04
  33.102  0.511E-04  0.511E-04
  33.117  0.518E-04  0.518E-04
  33.132  0.526E-04  0.526E-04
  33.147  0.534E-04  0.534E-04
  33.162  0.544E-04  0.544E-04
  33.177  0.555E-04  0.555E-04
  33.192  0.566E-04  0.566E-04
  33.207  0.579E-04  0.579E-04
  33.222  0.593E-04  0.593E-04
  33.237  0.609E-04  0.609E-04
  33.252  0.625E-04  0.625E-04
  33.267  0.643E-04  0.643E-04
  33.282  0.662E-04  0.662E-04
  33.297  0.683E-04  0.683E-04
  33.312  0.705E-04  0.705E-04
  33.327  0.728E-04  0.728E-04
  33.342  0.752E-04  0.752E-04
  33.357  0.778E-04  0.778E-04
  33.372  0.805E-04  0.805E-04
  33.387  0.833E-04  0.833E-04
  33.402  0.862E-04  0.862E-04
  33.417  0.892E-04  0.892E-04
  33.432  0.923E-04  0.923E-04
  33.447  0.955E-04  0.955E-04
  33.462  0.988E-04  0.988E-04
  33.477  0.102E-03  0.102E-03
  33.492  0.106E-03  0.106E-03
  33.507  0.109E-03  0.109E-03
  33.522  0.112E-03  0.112E-03
  33.537  0.116E-03  0.116E-03
  33.552  0.119E-03  0.119E-03
  33.567  0.123E-03  0.123E-03
  33.582  0.126E-03  0.126E-03
  33.597  0.129E-03  0.129E-03
  33.612  0.133E-03  0.133E-03
  33.627  0.136E-03  0.136E-03
  33.642  0.139E-03  0.139E-03
  33.657  0.142E-03  0.142E-03
  33.672  0.145E-03  0.145E-03
  33.687  0.148E-03  0.148E-03
  33.702  0.151E-03  0.151E-03
  33.717  0.153E-03  0.153E-03
  33.732  0.156E-03  0.156E-03
  33.747  0.159E-03  0.159E-03
  33.762  0.161E-03  0.161E-03
  33.777  0.163E-03  0.163E-03
  33.792  0.166E-03  0.166E-03
  33.807  0.168E-03  0.168E-03
  33.822  0.170E-03  0.170E-03
  33.837  0.172E-03  0.172E-03
  33.852  0.174E-03  0.174E-03
  33.867  0.176E-03  0.176E-03
  33.882  0.178E-03  0.178E-03
  33.897  0.179E-03  0.179E-03
  33.912  0.181E-03  0.181E-03
  33.927  0.182E-03  0.182E-03
  33.942  0.183E-03  0.183E-03
  33.957  0.185E-03  0.185E-03
  33.972  0.186E-03  0.186E-03
  33.987  0.186E-03  0.186E-03
  34.002  0.187E-03  0.187E-03
  34.017  0.187E-03  0.187E-03
  34.032  0.188E-03  0.188E-03
  34.047  0.188E-03  0.188E-03
  34.062  0.188E-03  0.188E-03
  34.077  0.187E-03  0.187E-03
  34.092  0.187E-03  0.187E-03
  34.107  0.186E-03  0.186E-03
  34.122  0.186E-03  0.186E-03
  34.137  0.185E-03  0.185E-03
  34.152  0.184E-03  0.184E-03
  34.167  0.183E-03  0.183E-03
  34.182  0.182E-03  0.182E-03
  34.197  0.181E-03  0.181E-03
  34.212  0.180E-03  0.180E-03
  34.227  0.178E-03  0.178E-03
  34.242  0.177E-03  0.177E-03
  34.257  0.176E-03  0.176E-03
  34.272  0.174E-03  0.174E-03
  34.287  0.173E-03  0.173E-03
  34.302  0.172E-03  0.172E-03
  34.317  0.170E-03  0.170E-03
  34.332  0.169E-03  0.169E-03
  34.347  0.167E-03  0.167E-03
  34.362  0.165E-03  0.165E-03
  34.377  0.164E-03  0.164E-03
  34.392  0.162E-03  0.162E-03
  34.407  0.160E-03  0.160E-03
  34.422  0.157E-03  0.157E-03
  34.437  0.155E-03  0.155E-03
  34.452  0.152E-03  0.152E-03
  34.467  0.150E-03  0.150E-03
  34.482  0.147E-03  0.147E-03
  34.497  0.143E-03  0.143E-03
  34.512  0.140E-03  0.140E-03
  34.527  0.136E-03  0.136E-03
  34.542  0.132E-03  0.132E-03
  34.557  0.128E-03  0.128E-03
  34.572  0.124E-03  0.124E-03
  34.587  0.119E-03  0.119E-03
  34.602  0.115E-03  0.115E-03
  34.617  0.110E-03  0.110E-03
  34.632  0.106E-03  0.106E-03
  34.647  0.101E-03  0.101E-03
  34.662  0.962E-04  0.962E-04
  34.677  0.915E-04  0.915E-04
  34.692  0.869E-04  0.869E-04
  34.707  0.823E-04  0.823E-04
  34.722  0.780E-04  0.780E-04
  34.737  0.737E-04  0.737E-04
  34.752  0.697E-04  0.697E-04
  34.767  0.658E-04  0.658E-04
  34.782  0.622E-04  0.622E-04
  34.797  0.588E-04  0.588E-04
  34.812  0.557E-04  0.557E-04
  34.827  0.528E-04  0.528E-04
  34.842  0.502E-04  0.502E-04
  34.857  0.479E-04  0.479E-04
  34.872  0.458E-04  0.458E-04
  34.887  0.440E-04  0.440E-04
  34.902  0.424E-04  0.424E-04
  34.917  0.411E-04  0.411E-04
  34.932  0.400E-04  0.400E-04
  34.947  0.391E-04  0.391E-04
  34.962  0.384E-04  0.384E-04
  34.977  0.379E-04  0.379E-04
  34.992  0.375E-04  0.375E-04
  35.007  0.373E-04  0.373E-04
  35.022  0.372E-04  0.372E-04
  35.037  0.372E-04  0.372E-04
  35.052  0.373E-04  0.373E-04
  35.067  0.375E-04  0.375E-04
  35.082  0.377E-04  0.377E-04
  35.097  0.380E-04  0.380E-04
  35.112  0.383E-04  0.383E-04
  35.127  0.385E-04  0.385E-04
  35.142  0.388E-04  0.388E-04
  35.157  0.391E-04  0.391E-04
  35.172  0.393E-04  0.393E-04
  35.187  0.395E-04  0.395E-04
  35.202  0.397E-04  0.397E-04
  35.217  0.398E-04  0.398E-04
  35.232  0.398E-04  0.398E-04
  35.247  0.398E-04  0.398E-04
  35.262  0.398E-04  0.398E-04
  35.277  0.397E-04  0.397E-04
  35.292  0.395E-04  0.395E-04
  35.307  0.393E-04  0.393E-04
  35.322  0.390E-04  0.390E-04
  35.337  0.387E-04  0.387E-04
  35.352  0.383E-04  0.383E-04
  35.367  0.379E-04  0.379E-04
  35.382  0.374E-04  0.374E-04
  35.397  0.369E-04  0.369E-04
  35.412  0.364E-04  0.364E-04
  35.427  0.358E-04  0.358E-04
  35.442  0.353E-04  0.353E-04
  35.457  0.347E-04  0.347E-04
  35.472  0.341E-04  0.341E-04
  35.487  0.334E-04  0.334E-04
  35.502  0.328E-04  0.328E-04
  35.517  0.322E-04  0.322E-04
  35.532  0.316E-04  0.316E-04
  35.547  0.310E-04  0.310E-04
  35.562  0.303E-04  0.303E-04
  35.577  0.298E-04  0.298E-04
  35.592  0.292E-04  0.292E-04
  35.607  0.286E-04  0.286E-04
  35.622  0.281E-04  0.281E-04
  35.637  0.276E-04  0.276E-04
  35.652  0.271E-04  0.271E-04
  35.667  0.267E-04  0.267E-04
  35.682  0.263E-04  0.263E-04
  35.697  0.260E-04  0.260E-04
  35.712  0.257E-04  0.257E-04
  35.727  0.254E-04  0.254E-04
  35.742  0.252E-04  0.252E-04
  35.757  0.250E-04  0.250E-04
  35.772  0.249E-04  0.249E-04
  35.787  0.248E-04  0.248E-04
  35.802  0.248E-04  0.248E-04
  35.817  0.248E-04  0.248E-04
  35.832  0.249E-04  0.249E-04
  35.847  0.250E-04  0.250E-04
  35.862  0.251E-04  0.251E-04
  35.877  0.253E-04  0.253E-04
  35.892  0.255E-04  0.255E-04
  35.907  0.258E-04  0.258E-04
  35.922  0.261E-04  0.261E-04
  35.937  0.264E-04  0.264E-04
  35.952  0.267E-04  0.267E-04
  35.967  0.271E-04  0.271E-04
  35.982  0.275E-04  0.275E-04
  35.997  0.279E-04  0.279E-04
  36.012  0.284E-04  0.284E-04
  36.027  0.289E-04  0.289E-04
  36.042  0.295E-04  0.295E-04
  36.057  0.301E-04  0.301E-04
  36.072  0.308E-04  0.308E-04
  36.087  0.316E-04  0.316E-04
  36.102  0.325E-04  0.325E-04
  36.117  0.335E-04  0.335E-04
  36.132  0.346E-04  0.346E-04
  36.147  0.359E-04  0.359E-04
  36.162  0.374E-04  0.374E-04
  36.177  0.390E-04  0.390E-04
  36.192  0.409E-04  0.409E-04
  36.207  0.430E-04  0.430E-04
  36.222  0.454E-04  0.454E-04
  36.237  0.481E-04  0.481E-04
  36.252  0.510E-04  0.510E-04
  36.267  0.542E-04  0.542E-04
  36.282  0.578E-04  0.578E-04
  36.297  0.616E-04  0.616E-04
  36.312  0.658E-04  0.658E-04
  36.327  0.703E-04  0.703E-04
  36.342  0.751E-04  0.751E-04
  36.357  0.801E-04  0.801E-04
  36.372  0.854E-04  0.854E-04
  36.387  0.910E-04  0.910E-04
  36.402  0.967E-04  0.967E-04
  36.417  0.103E-03  0.103E-03
  36.432  0.109E-03  0.109E-03
  36.447  0.115E-03  0.115E-03
  36.462  0.121E-03  0.121E-03
  36.477  0.127E-03  0.127E-03
  36.492  0.133E-03  0.133E-03
  36.507  0.138E-03  0.138E-03
  36.522  0.144E-03  0.144E-03
  36.537  0.149E-03  0.149E-03
  36.552  0.154E-03  0.154E-03
  36.567  0.159E-03  0.159E-03
  36.582  0.163E-03  0.163E-03
  36.597  0.167E-03  0.167E-03
  36.612  0.170E-03  0.170E-03
  36.627  0.173E-03  0.173E-03
  36.642  0.176E-03  0.176E-03
  36.657  0.178E-03  0.178E-03
  36.672  0.180E-03  0.180E-03
  36.687  0.181E-03  0.181E-03
  36.702  0.182E-03  0.182E-03
  36.717  0.182E-03  0.182E-03
  36.732  0.182E-03  0.182E-03
  36.747  0.182E-03  0.182E-03
  36.762  0.181E-03  0.181E-03
  36.777  0.180E-03  0.180E-03
  36.792  0.179E-03  0.179E-03
  36.807  0.178E-03  0.178E-03
  36.822  0.176E-03  0.176E-03
  36.837  0.174E-03  0.174E-03
  36.852  0.173E-03  0.173E-03
  36.867  0.171E-03  0.171E-03
  36.882  0.169E-03  0.169E-03
  36.897  0.167E-03  0.167E-03
  36.912  0.165E-03  0.165E-03
  36.927  0.164E-03  0.164E-03
  36.942  0.162E-03  0.162E-03
  36.957  0.160E-03  0.160E-03
  36.972  0.159E-03  0.159E-03
  36.987  0.157E-03  0.157E-03
  37.002  0.156E-03  0.156E-03
  37.017  0.155E-03  0.155E-03
  37.032  0.154E-03  0.154E-03
  37.047  0.152E-03  0.152E-03
  37.062  0.151E-03  0.151E-03
  37.077  0.150E-03  0.150E-03
  37.092  0.150E-03  0.150E-03
  37.107  0.149E-03  0.149E-03
  37.122  0.148E-03  0.148E-03
  37.137  0.147E-03  0.147E-03
  37.152  0.146E-03  0.146E-03
  37.167  0.144E-03  0.144E-03
  37.182  0.143E-03  0.143E-03
  37.197  0.142E-03  0.142E-03
  37.212  0.140E-03  0.140E-03
  37.227  0.139E-03  0.139E-03
  37.242  0.137E-03  0.137E-03
  37.257  0.134E-03  0.134E-03
  37.272  0.132E-03  0.132E-03
  37.287  0.129E-03  0.129E-03
  37.302  0.127E-03  0.127E-03
  37.317  0.124E-03  0.124E-03
  37.332  0.120E-03  0.120E-03
  37.347  0.117E-03  0.117E-03
  37.362  0.113E-03  0.113E-03
  37.377  0.109E-03  0.109E-03
  37.392  0.105E-03  0.105E-03
  37.407  0.101E-03  0.101E-03
  37.422  0.972E-04  0.972E-04
  37.437  0.930E-04  0.930E-04
  37.452  0.888E-04  0.888E-04
  37.467  0.846E-04  0.846E-04
  37.482  0.805E-04  0.805E-04
  37.497  0.764E-04  0.764E-04
  37.512  0.724E-04  0.724E-04
  37.527  0.685E-04  0.685E-04
  37.542  0.647E-04  0.647E-04
  37.557  0.610E-04  0.610E-04
  37.572  0.576E-04  0.576E-04
  37.587  0.543E-04  0.543E-04
  37.602  0.512E-04  0.512E-04
  37.617  0.482E-04  0.482E-04
  37.632  0.455E-04  0.455E-04
  37.647  0.429E-04  0.429E-04
  37.662  0.406E-04  0.406E-04
  37.677  0.384E-04  0.384E-04
  37.692  0.364E-04  0.364E-04
  37.707  0.345E-04  0.345E-04
  37.722  0.329E-04  0.329E-04
  37.737  0.314E-04  0.314E-04
  37.752  0.300E-04  0.300E-04
  37.767  0.288E-04  0.288E-04
  37.782  0.277E-04  0.277E-04
  37.797  0.267E-04  0.267E-04
  37.812  0.258E-04  0.258E-04
  37.827  0.250E-04  0.250E-04
  37.842  0.243E-04  0.243E-04
  37.857  0.238E-04  0.238E-04
  37.872  0.232E-04  0.232E-04
  37.887  0.228E-04  0.228E-04
  37.902  0.224E-04  0.224E-04
  37.917  0.221E-04  0.221E-04
  37.932  0.218E-04  0.218E-04
  37.947  0.216E-04  0.216E-04
  37.962  0.215E-04  0.215E-04
  37.977  0.214E-04  0.214E-04
  37.992  0.213E-04  0.213E-04
  38.007  0.213E-04  0.213E-04
  38.022  0.213E-04  0.213E-04
  38.037  0.214E-04  0.214E-04
  38.052  0.215E-04  0.215E-04
  38.067  0.216E-04  0.216E-04
  38.082  0.218E-04  0.218E-04
  38.097  0.220E-04  0.220E-04
  38.112  0.223E-04  0.223E-04
  38.127  0.226E-04  0.226E-04
  38.142  0.229E-04  0.229E-04
  38.157  0.232E-04  0.232E-04
  38.172  0.236E-04  0.236E-04
  38.187  0.239E-04  0.239E-04
  38.202  0.243E-04  0.243E-04
  38.217  0.247E-04  0.247E-04
  38.232  0.251E-04  0.251E-04
  38.247  0.255E-04  0.255E-04
  38.262  0.259E-04  0.259E-04
  38.277  0.263E-04  0.263E-04
  38.292  0.267E-04  0.267E-04
  38.307  0.271E-04  0.271E-04
  38.322  0.275E-04  0.275E-04
  38.337  0.279E-04  0.279E-04
  38.352  0.282E-04  0.282E-04
  38.367  0.286E-04  0.286E-04
  38.382  0.289E-04  0.289E-04
  38.397  0.292E-04  0.292E-04
  38.412  0.295E-04  0.295E-04
  38.427  0.298E-04  0.298E-04
  38.442  0.300E-04  0.300E-04
  38.457  0.303E-04  0.303E-04
  38.472  0.305E-04  0.305E-04
  38.487  0.306E-04  0.306E-04
  38.502  0.308E-04  0.308E-04
  38.517  0.309E-04  0.309E-04
  38.532  0.310E-04  0.310E-04
  38.547  0.311E-04  0.311E-04
  38.562  0.311E-04  0.311E-04
  38.577  0.311E-04  0.311E-04
  38.592  0.311E-04  0.311E-04
  38.607  0.310E-04  0.310E-04
  38.622  0.309E-04  0.309E-04
  38.637  0.308E-04  0.308E-04
  38.652  0.307E-04  0.307E-04
  38.667  0.305E-04  0.305E-04
  38.682  0.303E-04  0.303E-04
  38.697  0.300E-04  0.300E-04
  38.712  0.298E-04  0.298E-04
  38.727  0.295E-04  0.295E-04
  38.742  0.292E-04  0.292E-04
  38.757  0.289E-04  0.289E-04
  38.772  0.285E-04  0.285E-04
  38.787  0.282E-04  0.282E-04
  38.802  0.278E-04  0.278E-04
  38.817  0.274E-04  0.274E-04
  38.832  0.270E-04  0.270E-04
  38.847  0.266E-04  0.266E-04
  38.862  0.262E-04  0.262E-04
  38.877  0.258E-04  0.258E-04
  38.892  0.254E-04  0.254E-04
  38.907  0.250E-04  0.250E-04
  38.922  0.246E-04  0.246E-04
  38.937  0.242E-04  0.242E-04
  38.952  0.238E-04  0.238E-04
  38.967  0.234E-04  0.234E-04
  38.982  0.230E-04  0.230E-04
  38.997  0.227E-04  0.227E-04
  39.012  0.223E-04  0.223E-04
  39.027  0.220E-04  0.220E-04
  39.042  0.216E-04  0.216E-04
  39.057  0.213E-04  0.213E-04
  39.072  0.210E-04  0.210E-04
  39.087  0.207E-04  0.207E-04
  39.102  0.205E-04  0.205E-04
  39.117  0.202E-04  0.202E-04
  39.132  0.200E-04  0.200E-04
  39.147  0.198E-04  0.198E-04
  39.162  0.196E-04  0.196E-04
  39.177  0.194E-04  0.194E-04
  39.192  0.193E-04  0.193E-04
  39.207  0.192E-04  0.192E-04
  39.222  0.190E-04  0.190E-04
  39.237  0.190E-04  0.190E-04
  39.252  0.189E-04  0.189E-04
  39.267  0.189E-04  0.189E-04
  39.282  0.189E-04  0.189E-04
  39.297  0.189E-04  0.189E-04
  39.312  0.189E-04  0.189E-04
  39.327  0.190E-04  0.190E-04
  39.342  0.191E-04  0.191E-04
  39.357  0.193E-04  0.193E-04
  39.372  0.194E-04  0.194E-04
  39.387  0.196E-04  0.196E-04
  39.402  0.198E-04  0.198E-04
  39.417  0.201E-04  0.201E-04
  39.432  0.204E-04  0.204E-04
  39.447  0.207E-04  0.207E-04
  39.462  0.210E-04  0.210E-04
  39.477  0.214E-04  0.214E-04
  39.492  0.218E-04  0.218E-04
  39.507  0.223E-04  0.223E-04
  39.522  0.228E-04  0.228E-04
  39.537  0.233E-04  0.233E-04
  39.552  0.239E-04  0.239E-04
  39.567  0.245E-04  0.245E-04
  39.582  0.251E-04  0.251E-04
  39.597  0.258E-04  0.258E-04
  39.612  0.266E-04  0.266E-04
  39.627  0.274E-04  0.274E-04
  39.642  0.283E-04  0.283E-04
  39.657  0.292E-04  0.292E-04
  39.672  0.303E-04  0.303E-04
  39.687  0.313E-04  0.313E-04
  39.702  0.325E-04  0.325E-04
  39.717  0.337E-04  0.337E-04
  39.732  0.350E-04  0.350E-04
  39.747  0.364E-04  0.364E-04
  39.762  0.379E-04  0.379E-04
  39.777  0.394E-04  0.394E-04
  39.792  0.410E-04  0.410E-04
  39.807  0.426E-04  0.426E-04
  39.822  0.443E-04  0.443E-04
  39.837  0.460E-04  0.460E-04
  39.852  0.478E-04  0.478E-04
  39.867  0.495E-04  0.495E-04
  39.882  0.513E-04  0.513E-04
  39.897  0.531E-04  0.531E-04
  39.912  0.549E-04  0.549E-04
  39.927  0.566E-04  0.566E-04
  39.942  0.584E-04  0.584E-04
  39.957  0.601E-04  0.601E-04
  39.972  0.617E-04  0.617E-04
  39.987  0.633E-04  0.633E-04
  40.002  0.648E-04  0.648E-04
  40.017  0.662E-04  0.662E-04
  40.032  0.676E-04  0.676E-04
  40.047  0.689E-04  0.689E-04
  40.062  0.702E-04  0.702E-04
  40.077  0.714E-04  0.714E-04
  40.092  0.725E-04  0.725E-04
  40.107  0.736E-04  0.736E-04
  40.122  0.747E-04  0.747E-04
  40.137  0.757E-04  0.757E-04
  40.152  0.767E-04  0.767E-04
  40.167  0.777E-04  0.777E-04
  40.182  0.787E-04  0.787E-04
  40.197  0.797E-04  0.797E-04
  40.212  0.807E-04  0.807E-04
  40.227  0.818E-04  0.818E-04
  40.242  0.828E-04  0.828E-04
  40.257  0.839E-04  0.839E-04
  40.272  0.850E-04  0.850E-04
  40.287  0.861E-04  0.861E-04
  40.302  0.872E-04  0.872E-04
  40.317  0.884E-04  0.884E-04
  40.332  0.895E-04  0.895E-04
  40.347  0.906E-04  0.906E-04
  40.362  0.917E-04  0.917E-04
  40.377  0.928E-04  0.928E-04
  40.392  0.937E-04  0.937E-04
  40.407  0.947E-04  0.947E-04
  40.422  0.955E-04  0.955E-04
  40.437  0.962E-04  0.962E-04
  40.452  0.968E-04  0.968E-04
  40.467  0.973E-04  0.973E-04
  40.482  0.977E-04  0.977E-04
  40.497  0.979E-04  0.979E-04
  40.512  0.979E-04  0.979E-04
  40.527  0.978E-04  0.978E-04
  40.542  0.976E-04  0.976E-04
  40.557  0.972E-04  0.972E-04
  40.572  0.966E-04  0.966E-04
  40.587  0.960E-04  0.960E-04
  40.602  0.952E-04  0.952E-04
  40.617  0.943E-04  0.943E-04
  40.632  0.933E-04  0.933E-04
  40.647  0.922E-04  0.922E-04
  40.662  0.911E-04  0.911E-04
  40.677  0.898E-04  0.898E-04
  40.692  0.886E-04  0.886E-04
  40.707  0.872E-04  0.872E-04
  40.722  0.859E-04  0.859E-04
  40.737  0.845E-04  0.845E-04
  40.752  0.831E-04  0.831E-04
  40.767  0.816E-04  0.816E-04
  40.782  0.802E-04  0.802E-04
  40.797  0.787E-04  0.787E-04
  40.812  0.772E-04  0.772E-04
  40.827  0.757E-04  0.757E-04
  40.842  0.741E-04  0.741E-04
  40.857  0.725E-04  0.725E-04
  40.872  0.709E-04  0.709E-04
  40.887  0.693E-04  0.693E-04
  40.902  0.677E-04  0.677E-04
  40.917  0.660E-04  0.660E-04
  40.932  0.643E-04  0.643E-04
  40.947  0.626E-04  0.626E-04
  40.962  0.609E-04  0.609E-04
  40.977  0.592E-04  0.592E-04
  40.992  0.575E-04  0.575E-04
  41.007  0.558E-04  0.558E-04
  41.022  0.542E-04  0.542E-04
  41.037  0.526E-04  0.526E-04
  41.052  0.510E-04  0.510E-04
  41.067  0.496E-04  0.496E-04
  41.082  0.482E-04  0.482E-04
  41.097  0.469E-04  0.469E-04
  41.112  0.457E-04  0.457E-04
  41.127  0.446E-04  0.446E-04
  41.142  0.436E-04  0.436E-04
  41.157  0.428E-04  0.428E-04
  41.172  0.421E-04  0.421E-04
  41.187  0.415E-04  0.415E-04
  41.202  0.410E-04  0.410E-04
  41.217  0.407E-04  0.407E-04
  41.232  0.405E-04  0.405E-04
  41.247  0.404E-04  0.404E-04
  41.262  0.404E-04  0.404E-04
  41.277  0.404E-04  0.404E-04
  41.292  0.406E-04  0.406E-04
  41.307  0.408E-04  0.408E-04
  41.322  0.411E-04  0.411E-04
  41.337  0.414E-04  0.414E-04
  41.352  0.417E-04  0.417E-04
  41.367  0.421E-04  0.421E-04
  41.382  0.424E-04  0.424E-04
  41.397  0.427E-04  0.427E-04
  41.412  0.429E-04  0.429E-04
  41.427  0.431E-04  0.431E-04
  41.442  0.433E-04  0.433E-04
  41.457  0.433E-04  0.433E-04
  41.472  0.433E-04  0.433E-04
  41.487  0.432E-04  0.432E-04
  41.502  0.430E-04  0.430E-04
  41.517  0.427E-04  0.427E-04
  41.532  0.424E-04  0.424E-04
  41.547  0.419E-04  0.419E-04
  41.562  0.414E-04  0.414E-04
  41.577  0.408E-04  0.408E-04
  41.592  0.401E-04  0.401E-04
  41.607  0.394E-04  0.394E-04
  41.622  0.386E-04  0.386E-04
  41.637  0.378E-04  0.378E-04
  41.652  0.370E-04  0.370E-04
  41.667  0.362E-04  0.362E-04
  41.682  0.353E-04  0.353E-04
  41.697  0.345E-04  0.345E-04
  41.712  0.336E-04  0.336E-04
  41.727  0.328E-04  0.328E-04
  41.742  0.320E-04  0.320E-04
  41.757  0.313E-04  0.313E-04
  41.772  0.305E-04  0.305E-04
  41.787  0.298E-04  0.298E-04
  41.802  0.292E-04  0.292E-04
  41.817  0.286E-04  0.286E-04
  41.832  0.280E-04  0.280E-04
  41.847  0.274E-04  0.274E-04
  41.862  0.269E-04  0.269E-04
  41.877  0.264E-04  0.264E-04
  41.892  0.260E-04  0.260E-04
  41.907  0.255E-04  0.255E-04
  41.922  0.251E-04  0.251E-04
  41.937  0.248E-04  0.248E-04
  41.952  0.244E-04  0.244E-04
  41.967  0.240E-04  0.240E-04
  41.982  0.237E-04  0.237E-04
  41.997  0.234E-04  0.234E-04
  42.012  0.231E-04  0.231E-04
  42.027  0.227E-04  0.227E-04
  42.042  0.224E-04  0.224E-04
  42.057  0.221E-04  0.221E-04
  42.072  0.218E-04  0.218E-04
  42.087  0.215E-04  0.215E-04
  42.102  0.211E-04  0.211E-04
  42.117  0.208E-04  0.208E-04
  42.132  0.205E-04  0.205E-04
  42.147  0.201E-04  0.201E-04
  42.162  0.198E-04  0.198E-04
  42.177  0.194E-04  0.194E-04
  42.192  0.191E-04  0.191E-04
  42.207  0.187E-04  0.187E-04
  42.222  0.183E-04  0.183E-04
  42.237  0.180E-04  0.180E-04
  42.252  0.176E-04  0.176E-04
  42.267  0.173E-04  0.173E-04
  42.282  0.169E-04  0.169E-04
  42.297  0.166E-04  0.166E-04
  42.312  0.163E-04  0.163E-04
  42.327  0.160E-04  0.160E-04
  42.342  0.157E-04  0.157E-04
  42.357  0.154E-04  0.154E-04
  42.372  0.152E-04  0.152E-04
  42.387  0.149E-04  0.149E-04
  42.402  0.147E-04  0.147E-04
  42.417  0.145E-04  0.145E-04
  42.432  0.143E-04  0.143E-04
  42.447  0.142E-04  0.142E-04
  42.462  0.140E-04  0.140E-04
  42.477  0.139E-04  0.139E-04
  42.492  0.138E-04  0.138E-04
  42.507  0.138E-04  0.138E-04
  42.522  0.137E-04  0.137E-04
  42.537  0.137E-04  0.137E-04
  42.552  0.137E-04  0.137E-04
  42.567  0.137E-04  0.137E-04
  42.582  0.137E-04  0.137E-04
  42.597  0.138E-04  0.138E-04
  42.612  0.138E-04  0.138E-04
  42.627  0.139E-04  0.139E-04
  42.642  0.140E-04  0.140E-04
  42.657  0.141E-04  0.141E-04
  42.672  0.142E-04  0.142E-04
  42.687  0.143E-04  0.143E-04
  42.702  0.144E-04  0.144E-04
  42.717  0.146E-04  0.146E-04
  42.732  0.147E-04  0.147E-04
  42.747  0.148E-04  0.148E-04
  42.762  0.149E-04  0.149E-04
  42.777  0.150E-04  0.150E-04
  42.792  0.151E-04  0.151E-04
  42.807  0.152E-04  0.152E-04
  42.822  0.153E-04  0.153E-04
  42.837  0.153E-04  0.153E-04
  42.852  0.153E-04  0.153E-04
  42.867  0.154E-04  0.154E-04
  42.882  0.154E-04  0.154E-04
  42.897  0.154E-04  0.154E-04
  42.912  0.153E-04  0.153E-04
  42.927  0.153E-04  0.153E-04
  42.942  0.153E-04  0.153E-04
  42.957  0.152E-04  0.152E-04
  42.972  0.151E-04  0.151E-04
  42.987  0.150E-04  0.150E-04
  43.002  0.149E-04  0.149E-04
  43.017  0.148E-04  0.148E-04
  43.032  0.147E-04  0.147E-04
  43.047  0.146E-04  0.146E-04
  43.062  0.145E-04  0.145E-04
  43.077  0.144E-04  0.144E-04
  43.092  0.143E-04  0.143E-04
  43.107  0.142E-04  0.142E-04
  43.122  0.141E-04  0.141E-04
  43.137  0.140E-04  0.140E-04
  43.152  0.138E-04  0.138E-04
  43.167  0.137E-04  0.137E-04
  43.182  0.136E-04  0.136E-04
  43.197  0.135E-04  0.135E-04
  43.212  0.133E-04  0.133E-04
  43.227  0.132E-04  0.132E-04
  43.242  0.130E-04  0.130E-04
  43.257  0.128E-04  0.128E-04
  43.272  0.127E-04  0.127E-04
  43.287  0.125E-04  0.125E-04
  43.302  0.123E-04  0.123E-04
  43.317  0.121E-04  0.121E-04
  43.332  0.118E-04  0.118E-04
  43.347  0.116E-04  0.116E-04
  43.362  0.113E-04  0.113E-04
  43.377  0.111E-04  0.111E-04
  43.392  0.108E-04  0.108E-04
  43.407  0.106E-04  0.106E-04
  43.422  0.103E-04  0.103E-04
  43.437  0.101E-04  0.101E-04
  43.452  0.985E-05  0.985E-05
  43.467  0.962E-05  0.962E-05
  43.482  0.940E-05  0.940E-05
  43.497  0.920E-05  0.920E-05
  43.512  0.902E-05  0.902E-05
  43.527  0.885E-05  0.885E-05
  43.542  0.871E-05  0.871E-05
  43.557  0.860E-05  0.860E-05
  43.572  0.851E-05  0.851E-05
  43.587  0.845E-05  0.845E-05
  43.602  0.842E-05  0.842E-05
  43.617  0.842E-05  0.842E-05
  43.632  0.845E-05  0.845E-05
  43.647  0.851E-05  0.851E-05
  43.662  0.859E-05  0.859E-05
  43.677  0.871E-05  0.871E-05
  43.692  0.885E-05  0.885E-05
  43.707  0.902E-05  0.902E-05
  43.722  0.921E-05  0.921E-05
  43.737  0.943E-05  0.943E-05
  43.752  0.967E-05  0.967E-05
  43.767  0.994E-05  0.994E-05
  43.782  0.102E-04  0.102E-04
  43.797  0.105E-04  0.105E-04
  43.812  0.108E-04  0.108E-04
  43.827  0.112E-04  0.112E-04
  43.842  0.115E-04  0.115E-04
  43.857  0.119E-04  0.119E-04
  43.872  0.123E-04  0.123E-04
  43.887  0.126E-04  0.126E-04
  43.902  0.130E-04  0.130E-04
  43.917  0.134E-04  0.134E-04
  43.932  0.139E-04  0.139E-04
  43.947  0.143E-04  0.143E-04
  43.962  0.147E-04  0.147E-04
  43.977  0.151E-04  0.151E-04
  43.992  0.155E-04  0.155E-04
  44.007  0.159E-04  0.159E-04
  44.022  0.164E-04  0.164E-04
  44.037  0.168E-04  0.168E-04
  44.052  0.172E-04  0.172E-04
  44.067  0.176E-04  0.176E-04
  44.082  0.180E-04  0.180E-04
  44.097  0.184E-04  0.184E-04
  44.112  0.188E-04  0.188E-04
  44.127  0.192E-04  0.192E-04
  44.142  0.196E-04  0.196E-04
  44.157  0.199E-04  0.199E-04
  44.172  0.203E-04  0.203E-04
  44.187  0.207E-04  0.207E-04
  44.202  0.211E-04  0.211E-04
  44.217  0.215E-04  0.215E-04
  44.232  0.220E-04  0.220E-04
  44.247  0.224E-04  0.224E-04
  44.262  0.229E-04  0.229E-04
  44.277  0.234E-04  0.234E-04
  44.292  0.240E-04  0.240E-04
  44.307  0.247E-04  0.247E-04
  44.322  0.254E-04  0.254E-04
  44.337  0.261E-04  0.261E-04
  44.352  0.270E-04  0.270E-04
  44.367  0.279E-04  0.279E-04
  44.382  0.289E-04  0.289E-04
  44.397  0.300E-04  0.300E-04
  44.412  0.311E-04  0.311E-04
  44.427  0.324E-04  0.324E-04
  44.442  0.337E-04  0.337E-04
  44.457  0.350E-04  0.350E-04
  44.472  0.365E-04  0.365E-04
  44.487  0.380E-04  0.380E-04
  44.502  0.395E-04  0.395E-04
  44.517  0.410E-04  0.410E-04
  44.532  0.425E-04  0.425E-04
  44.547  0.441E-04  0.441E-04
  44.562  0.455E-04  0.455E-04
  44.577  0.469E-04  0.469E-04
  44.592  0.483E-04  0.483E-04
  44.607  0.495E-04  0.495E-04
  44.622  0.506E-04  0.506E-04
  44.637  0.516E-04  0.516E-04
  44.652  0.524E-04  0.524E-04
  44.667  0.530E-04  0.530E-04
  44.682  0.534E-04  0.534E-04
  44.697  0.536E-04  0.536E-04
  44.712  0.537E-04  0.537E-04
  44.727  0.535E-04  0.535E-04
  44.742  0.531E-04  0.531E-04
  44.757  0.525E-04  0.525E-04
  44.772  0.517E-04  0.517E-04
  44.787  0.507E-04  0.507E-04
  44.802  0.495E-04  0.495E-04
  44.817  0.482E-04  0.482E-04
  44.832  0.467E-04  0.467E-04
  44.847  0.450E-04  0.450E-04
  44.862  0.433E-04  0.433E-04
  44.877  0.414E-04  0.414E-04
  44.892  0.395E-04  0.395E-04
  44.907  0.375E-04  0.375E-04
  44.922  0.355E-04  0.355E-04
  44.937  0.335E-04  0.335E-04
  44.952  0.314E-04  0.314E-04
  44.967  0.294E-04  0.294E-04
  44.982  0.275E-04  0.275E-04
  44.997  0.256E-04  0.256E-04
  45.012  0.237E-04  0.237E-04
  45.027  0.219E-04  0.219E-04
  45.042  0.202E-04  0.202E-04
  45.057  0.186E-04  0.186E-04
  45.072  0.171E-04  0.171E-04
  45.087  0.157E-04  0.157E-04
  45.102  0.143E-04  0.143E-04
  45.117  0.131E-04  0.131E-04
  45.132  0.119E-04  0.119E-04
  45.147  0.108E-04  0.108E-04
  45.162  0.986E-05  0.986E-05
  45.177  0.895E-05  0.895E-05
  45.192  0.811E-05  0.811E-05
  45.207  0.735E-05  0.735E-05
  45.222  0.665E-05  0.665E-05
  45.237  0.601E-05  0.601E-05
  45.252  0.543E-05  0.543E-05
  45.267  0.489E-05  0.489E-05
  45.282  0.441E-05  0.441E-05
  45.297  0.396E-05  0.396E-05
  45.312  0.356E-05  0.356E-05
  45.327  0.318E-05  0.318E-05
  45.342  0.285E-05  0.285E-05
  45.357  0.254E-05  0.254E-05
  45.372  0.226E-05  0.226E-05
  45.387  0.200E-05  0.200E-05
  45.402  0.177E-05  0.177E-05
  45.417  0.156E-05  0.156E-05
  45.432  0.137E-05  0.137E-05
  45.447  0.120E-05  0.120E-05
  45.462  0.104E-05  0.104E-05
  45.477  0.903E-06  0.903E-06
  45.492  0.780E-06  0.780E-06
  45.507  0.671E-06  0.671E-06
  45.522  0.574E-06  0.574E-06
  45.537  0.489E-06  0.489E-06
  45.552  0.414E-06  0.414E-06
  45.567  0.349E-06  0.349E-06
  45.582  0.293E-06  0.293E-06
  45.597  0.245E-06  0.245E-06
  45.612  0.203E-06  0.203E-06
  45.627  0.168E-06  0.168E-06
  45.642  0.138E-06  0.138E-06
  45.657  0.113E-06  0.113E-06
  45.672  0.914E-07  0.914E-07
  45.687  0.738E-07  0.738E-07
  45.702  0.593E-07  0.593E-07
  45.717  0.473E-07  0.473E-07
  45.732  0.376E-07  0.376E-07
  45.747  0.297E-07  0.297E-07
  45.762  0.233E-07  0.233E-07
  45.777  0.182E-07  0.182E-07
  45.792  0.141E-07  0.141E-07
  45.807  0.109E-07  0.109E-07
  45.822  0.833E-08  0.833E-08
  45.837  0.635E-08  0.635E-08
  45.852  0.481E-08  0.481E-08
  45.867  0.362E-08  0.362E-08
  45.882  0.271E-08  0.271E-08
  45.897  0.202E-08  0.202E-08
  45.912  0.149E-08  0.149E-08
  45.927  0.110E-08  0.110E-08
  45.942  0.802E-09  0.802E-09
  45.957  0.583E-09  0.583E-09
  45.972  0.421E-09  0.421E-09
  45.987  0.302E-09  0.302E-09
  46.002  0.216E-09  0.216E-09
  46.017  0.153E-09  0.153E-09
  46.032  0.108E-09  0.108E-09
  46.047  0.756E-10  0.756E-10
  46.062  0.526E-10  0.526E-10
  46.077  0.364E-10  0.364E-10
  46.092  0.251E-10  0.251E-10
  46.107  0.171E-10  0.171E-10
  46.122  0.117E-10  0.117E-10
  46.137  0.788E-11  0.788E-11
  46.152  0.529E-11  0.529E-11
  46.167  0.353E-11  0.353E-11
  46.182  0.234E-11  0.234E-11
  46.197  0.155E-11  0.155E-11
  46.212  0.101E-11  0.101E-11
  46.227  0.661E-12  0.661E-12
  46.242  0.428E-12  0.428E-12
  46.257  0.276E-12  0.276E-12
  46.272  0.176E-12  0.176E-12
  46.287  0.112E-12  0.112E-12
  46.302  0.709E-13  0.709E-13
  46.317  0.445E-13  0.445E-13
  46.332  0.278E-13  0.278E-13
